^Grazia_DSC_Gr30                                                16.01.2023 12:19
________________________________________________________________________________



Curve Name:
  ^Grazia_DSC_Gr30, 16.01.2023 12:19:00
Curve Values:
          Index              t             Ts          Value
                           [s]           [°C]           [mW]
              0              0        -79,996       0,823969
              1              1        -79,662       0,818658
              2              2        -79,328       0,908822
              3              3        -78,994        1,00869
              4              4        -78,663       0,645779
              5              5        -78,333     -0,0117988
              6              6        -78,005      -0,905486
              7              7        -77,677       -1,89787
              8              8        -77,350       -2,89865
              9              9        -77,022       -3,80812
             10             10        -76,694       -4,61172
             11             11        -76,365       -5,33773
             12             12        -76,035       -5,88616
             13             13        -75,705        -6,3683
             14             14        -75,374       -6,77671
             15             15        -75,043       -7,13946
             16             16        -74,712       -7,41121
             17             17        -74,380       -7,64809
             18             18        -74,048       -7,84601
             19             19        -73,717       -8,02292
             20             20        -73,384       -8,14912
             21             21        -73,052       -8,25813
             22             22        -72,720        -8,3483
             23             23        -72,387       -8,42606
             24             24        -72,055       -8,47801
             25             25        -71,722       -8,52081
             26             26        -71,389       -8,55326
             27             27        -71,056       -8,57934
             28             28        -70,724       -8,59918
             29             29        -70,391       -8,60986
             30             30        -70,058       -8,61555
             31             31        -69,725       -8,62016
             32             32        -69,392       -8,62312
             33             33        -69,059       -8,62183
             34             34        -68,726       -8,61618
             35             35        -68,393       -8,60944
             36             36        -68,060       -8,60187
             37             37        -67,727       -8,59336
             38             38        -67,394       -8,58209
             39             39        -67,061       -8,56677
             40             40        -66,728        -8,5545
             41             41        -66,395         -8,542
             42             42        -66,062       -8,52926
             43             43        -65,729       -8,51459
             44             44        -65,396       -8,50025
             45             45        -65,063       -8,48756
             46             46        -64,729       -8,47214
             47             47        -64,396       -8,45668
             48             48        -64,063       -8,44078
             49             49        -63,730       -8,42468
             50             50        -63,397       -8,40964
             51             51        -63,064       -8,39789
             52             52        -62,731       -8,38371
             53             53        -62,398       -8,36973
             54             54        -62,065       -8,35634
             55             55        -61,732       -8,34366
             56             56        -61,399        -8,3263
             57             57        -61,066        -8,3071
             58             58        -60,733       -8,29282
             59             59        -60,400       -8,27916
             60             60        -60,067       -8,26586
             61             61        -59,733       -8,25223
             62             62        -59,400       -8,23865
             63             63        -59,067       -8,22502
             64             64        -58,734       -8,20885
             65             65        -58,401       -8,19323
             66             66        -58,068       -8,18008
             67             67        -57,735       -8,16757
             68             68        -57,402       -8,15482
             69             69        -57,069       -8,14148
             70             70        -56,736       -8,12632
             71             71        -56,403       -8,11004
             72             72        -56,070       -8,09798
             73             73        -55,737       -8,08458
             74             74        -55,404        -8,0714
             75             75        -55,070        -8,0585
             76             76        -54,737       -8,04592
             77             77        -54,404       -8,03313
             78             78        -54,071       -8,02047
             79             79        -53,738         -8,008
             80             80        -53,405       -7,99725
             81             81        -53,072       -7,98694
             82             82        -52,739       -7,97655
             83             83        -52,406       -7,96582
             84             84        -52,073       -7,94866
             85             85        -51,740       -7,93546
             86             86        -51,407       -7,92324
             87             87        -51,074       -7,91146
             88             88        -50,741       -7,90041
             89             89        -50,408       -7,88945
             90             90        -50,074       -7,87835
             91             91        -49,741       -7,86759
             92             92        -49,408       -7,85539
             93             93        -49,075       -7,84387
             94             94        -48,742       -7,83215
             95             95        -48,409       -7,81978
             96             96        -48,076       -7,80759
             97             97        -47,743       -7,79759
             98             98        -47,410       -7,78892
             99             99        -47,077       -7,78297
            100            100        -46,744       -7,77128
            101            101        -46,411       -7,75977
            102            102        -46,078       -7,74845
            103            103        -45,745       -7,73714
            104            104        -45,412       -7,72819
            105            105        -45,079       -7,72078
            106            106        -44,746       -7,71048
            107            107        -44,412       -7,69935
            108            108        -44,079       -7,68795
            109            109        -43,746       -7,67693
            110            110        -43,413       -7,66829
            111            111        -43,080       -7,65993
            112            112        -42,747       -7,64978
            113            113        -42,414       -7,63832
            114            114        -42,081       -7,63011
            115            115        -41,748       -7,62273
            116            116        -41,415       -7,61235
            117            117        -41,082       -7,60274
            118            118        -40,749        -7,5934
            119            119        -40,416       -7,58409
            120            120        -40,083       -7,57486
            121            121        -39,750        -7,5657
            122            122        -39,417       -7,55653
            123            123        -39,084        -7,5473
            124            124        -38,751        -7,5383
            125            125        -38,417       -7,52938
            126            126        -38,084       -7,52053
            127            127        -37,751       -7,51176
            128            128        -37,418       -7,50343
            129            129        -37,085       -7,49494
            130            130        -36,752       -7,48632
            131            131        -36,419       -7,47778
            132            132        -36,086       -7,46956
            133            133        -35,753       -7,46074
            134            134        -35,420       -7,45166
            135            135        -35,087       -7,44441
            136            136        -34,754       -7,43866
            137            137        -34,421       -7,43241
            138            138        -34,088       -7,42586
            139            139        -33,755       -7,41933
            140            140        -33,422        -7,4128
            141            141        -33,089       -7,40612
            142            142        -32,756       -7,39935
            143            143        -32,423       -7,39226
            144            144        -32,090       -7,38482
            145            145        -31,757        -7,3774
            146            146        -31,424       -7,36993
            147            147        -31,091       -7,36252
            148            148        -30,757       -7,35488
            149            149        -30,424       -7,34721
            150            150        -30,091       -7,33987
            151            151        -29,758       -7,33364
            152            152        -29,425       -7,32711
            153            153        -29,092       -7,32037
            154            154        -28,759       -7,31365
            155            155        -28,426       -7,30705
            156            156        -28,093       -7,30045
            157            157        -27,760       -7,29387
            158            158        -27,427       -7,28746
            159            159        -27,094       -7,28145
            160            160        -26,761       -7,27577
            161            161        -26,428       -7,26993
            162            162        -26,095       -7,26395
            163            163        -25,762       -7,25833
            164            164        -25,429       -7,25338
            165            165        -25,096       -7,24794
            166            166        -24,763       -7,24241
            167            167        -24,430       -7,23694
            168            168        -24,097        -7,2314
            169            169        -23,764       -7,22607
            170            170        -23,431       -7,22087
            171            171        -23,098       -7,21557
            172            172        -22,765       -7,21086
            173            173        -22,432       -7,20641
            174            174        -22,099       -7,20278
            175            175        -21,766       -7,19928
            176            176        -21,433        -7,1938
            177            177        -21,100       -7,18909
            178            178        -20,767       -7,18453
            179            179        -20,434       -7,17982
            180            180        -20,101       -7,17496
            181            181        -19,768       -7,16996
            182            182        -19,435       -7,16499
            183            183        -19,102       -7,16001
            184            184        -18,769       -7,15493
            185            185        -18,436        -7,1506
            186            186        -18,103        -7,1461
            187            187        -17,770        -7,1417
            188            188        -17,437        -7,1374
            189            189        -17,104       -7,13363
            190            190        -16,771       -7,12969
            191            191        -16,438       -7,12567
            192            192        -16,105       -7,12167
            193            193        -15,772       -7,11798
            194            194        -15,439       -7,11403
            195            195        -15,106       -7,11009
            196            196        -14,773       -7,10612
            197            197        -14,440       -7,10215
            198            198        -14,107       -7,09835
            199            199        -13,774       -7,09464
            200            200        -13,441       -7,09105
            201            201        -13,108       -7,08769
            202            202        -12,775       -7,08414
            203            203        -12,442       -7,08044
            204            204        -12,109       -7,07672
            205            205        -11,776       -7,07301
            206            206        -11,443       -7,06924
            207            207        -11,110       -7,06542
            208            208        -10,777       -7,06166
            209            209        -10,444       -7,05818
            210            210        -10,111       -7,05442
            211            211         -9,778       -7,05061
            212            212         -9,445       -7,04799
            213            213         -9,112       -7,04546
            214            214         -8,779       -7,04268
            215            215         -8,446       -7,03992
            216            216         -8,113       -7,03717
            217            217         -7,780       -7,03457
            218            218         -7,447       -7,03189
            219            219         -7,114       -7,02918
            220            220         -6,781       -7,02652
            221            221         -6,448       -7,02398
            222            222         -6,115       -7,02151
            223            223         -5,782       -7,01911
            224            224         -5,449       -7,01676
            225            225         -5,116       -7,01473
            226            226         -4,783       -7,01261
            227            227         -4,450       -7,01047
            228            228         -4,117       -7,00827
            229            229         -3,784       -7,00622
            230            230         -3,451       -7,00408
            231            231         -3,118       -7,00194
            232            232         -2,785       -6,99984
            233            233         -2,452       -6,99766
            234            234         -2,119       -6,99565
            235            235         -1,786       -6,99373
            236            236         -1,453       -6,99187
            237            237         -1,120       -6,99012
            238            238         -0,787       -6,98833
            239            239         -0,454       -6,98655
            240            240         -0,121       -6,98481
            241            241          0,212       -6,98331
            242            242          0,545       -6,98191
            243            243          0,878       -6,98067
            244            244          1,211       -6,97949
            245            245          1,544        -6,9788
            246            246          1,877       -6,97802
            247            247          2,209       -6,97727
            248            248          2,542       -6,97646
            249            249          2,875       -6,97579
            250            250          3,208       -6,97518
            251            251          3,541       -6,97464
            252            252          3,874       -6,97418
            253            253          4,207        -6,9738
            254            254          4,540       -6,97344
            255            255          4,873       -6,97305
            256            256          5,206       -6,97261
            257            257          5,539       -6,97214
            258            258          5,872       -6,97177
            259            259          6,205       -6,97139
            260            260          6,538       -6,97069
            261            261          6,871       -6,96934
            262            262          7,204       -6,97027
            263            263          7,537        -6,9714
            264            264          7,870       -6,97223
            265            265          8,203       -6,97266
            266            266          8,535       -6,97326
            267            267          8,868       -6,97383
            268            268          9,201       -6,97422
            269            269          9,534       -6,97531
            270            270          9,867        -6,9763
            271            271         10,200       -6,97736
            272            272         10,533       -6,97846
            273            273         10,866       -6,97993
            274            274         11,199       -6,98128
            275            275         11,532       -6,98264
            276            276         11,865       -6,98407
            277            277         12,198       -6,98593
            278            278         12,531       -6,98759
            279            279         12,863       -6,98953
            280            280         13,196       -6,99198
            281            281         13,529       -6,99521
            282            282         13,862       -6,99815
            283            283         14,195       -7,00105
            284            284         14,528       -7,00405
            285            285         14,861        -7,0076
            286            286         15,194       -7,01101
            287            287         15,526       -7,01453
            288            288         15,859       -7,01815
            289            289         16,192       -7,02235
            290            290         16,525       -7,02653
            291            291         16,858       -7,03087
            292            292         17,191       -7,03539
            293            293         17,524       -7,04068
            294            294         17,856       -7,04578
            295            295         18,189       -7,05093
            296            296         18,522       -7,05646
            297            297         18,855       -7,06287
            298            298         19,188       -7,06924
            299            299         19,521       -7,07593
            300            300         19,853        -7,0829
            301            301         20,186       -7,09062
            302            302         20,519       -7,09791
            303            303         20,852       -7,10522
            304            304         21,184       -7,11272
            305            305         21,517       -7,12036
            306            306         21,850       -7,12814
            307            307         22,183       -7,13606
            308            308         22,516       -7,14398
            309            309         22,848       -7,15217
            310            310         23,181       -7,16031
            311            311         23,514       -7,16858
            312            312         23,847       -7,17686
            313            313         24,179       -7,18527
            314            314         24,512       -7,19366
            315            315         24,845       -7,20278
            316            316         25,178       -7,21205
            317            317         25,510       -7,22151
            318            318         25,843       -7,23094
            319            319         26,176       -7,24044
            320            320         26,508       -7,24954
            321            321         26,841       -7,25891
            322            322         27,174       -7,26948
            323            323         27,507       -7,28227
            324            324         27,839       -7,29484
            325            325         28,172       -7,30762
            326            326         28,504       -7,32037
            327            327         28,837       -7,33373
            328            328         29,170       -7,34828
            329            329         29,502       -7,36419
            330            330         29,835       -7,37992
            331            331         30,167       -7,39591
            332            332         30,500       -7,41193
            333            333         30,832       -7,42932
            334            334         31,165       -7,44783
            335            335         31,497       -7,46733
            336            336         31,830        -7,4872
            337            337         32,162       -7,50824
            338            338         32,495       -7,53021
            339            339         32,827       -7,55266
            340            340         33,160       -7,57577
            341            341         33,492       -7,59986
            342            342         33,824       -7,62545
            343            343         34,156       -7,65271
            344            344         34,489       -7,68045
            345            345         34,821       -7,70937
            346            346         35,153       -7,73823
            347            347         35,485       -7,76871
            348            348         35,818       -7,80181
            349            349         36,150       -7,83605
            350            350         36,482       -7,87145
            351            351         36,814       -7,90867
            352            352         37,146       -7,94729
            353            353         37,478       -7,98846
            354            354         37,809       -8,03066
            355            355         38,141       -8,07469
            356            356         38,473          -8,12
            357            357         38,805       -8,16814
            358            358         39,137       -8,21784
            359            359         39,468       -8,27043
            360            360         39,800       -8,32369
            361            361         40,131       -8,37859
            362            362         40,463       -8,43646
            363            363         40,794       -8,49597
            364            364         41,126       -8,55667
            365            365         41,457       -8,62119
            366            366         41,788       -8,68624
            367            367         42,119        -8,7512
            368            368         42,451       -8,81645
            369            369         42,782        -8,8789
            370            370         43,113       -8,93649
            371            371         43,445       -8,98642
            372            372         43,777       -9,03036
            373            373         44,109       -9,05995
            374            374         44,441       -9,07912
            375            375         44,774       -9,08249
            376            376         45,107       -9,07373
            377            377         45,440       -9,04606
            378            378         45,774       -9,01565
            379            379         46,108       -8,98321
            380            380         46,441        -8,9478
            381            381         46,776       -8,89529
            382            382         47,110       -8,83848
            383            383         47,444       -8,78079
            384            384         47,778       -8,72279
            385            385         48,113       -8,66773
            386            386         48,447       -8,61614
            387            387         48,781       -8,56747
            388            388         49,115       -8,52215
            389            389         49,449       -8,48425
            390            390         49,783       -8,44944
            391            391         50,116       -8,41655
            392            392         50,450       -8,38507
            393            393         50,784       -8,35748
            394            394         51,117       -8,33416
            395            395         51,450       -8,31403
            396            396         51,784       -8,29768
            397            397         52,117       -8,28461
            398            398         52,450       -8,27347
            399            399         52,783       -8,26609
            400            400         53,116       -8,25987
            401            401         53,449       -8,25936
            402            402         53,782       -8,25917
            403            403         54,115       -8,25938
            404            404         54,448       -8,25995
            405            405         54,780       -8,26183
            406            406         55,113       -8,26357
            407            407         55,446       -8,26557
            408            408         55,779       -8,26738
            409            409         56,112       -8,26977
            410            410         56,445       -8,27258
            411            411         56,777       -8,27666
            412            412         57,110       -8,28124
            413            413         57,443       -8,28604
            414            414         57,776        -8,2907
            415            415         58,108       -8,29553
            416            416         58,441       -8,30031
            417            417         58,774       -8,30598
            418            418         59,106       -8,31141
            419            419         59,439       -8,31687
            420            420         59,772       -8,32238
            421            421         60,105       -8,32828
            422            422         60,437         -8,334
            423            423         60,770       -8,33976
            424            424         61,103       -8,34552
            425            425         61,435       -8,35129
            426            426         61,768       -8,35708
            427            427         62,101       -8,36284
            428            428         62,433       -8,36858
            429            429         62,766       -8,37435
            430            430         63,099        -8,3802
            431            431         63,431       -8,38619
            432            432         63,764       -8,39233
            433            433         64,097       -8,39847
            434            434         64,429       -8,40479
            435            435         64,762       -8,41188
            436            436         65,095       -8,41971
            437            437         65,427       -8,42741
            438            438         65,760       -8,43513
            439            439         66,093       -8,44308
            440            440         66,425       -8,45115
            441            441         66,758       -8,45958
            442            442         67,090       -8,46797
            443            443         67,423       -8,47645
            444            444         67,756       -8,48504
            445            445         68,088       -8,49419
            446            446         68,421        -8,5033
            447            447         68,753       -8,51256
            448            448         69,086       -8,52201
            449            449         69,419       -8,53189
            450            450         69,751       -8,54196
            451            451         70,084       -8,55229
            452            452         70,416       -8,56281
            453            453         70,749        -8,5743
            454            454         71,081       -8,58571
            455            455         71,414       -8,59744
            456            456         71,746       -8,60943
            457            457         72,079       -8,62163
            458            458         72,411       -8,63368
            459            459         72,744       -8,64576
            460            460         73,076       -8,65785
            461            461         73,409       -8,67006
            462            462         73,741       -8,68226
            463            463         74,074       -8,69452
            464            464         74,406       -8,70682
            465            465         74,738       -8,71893
            466            466         75,071       -8,73087
            467            467         75,403       -8,74274
            468            468         75,736       -8,75469
            469            469         76,068       -8,76545
            470            470         76,401       -8,77652
            471            471         76,733       -8,78753
            472            472         77,066       -8,79811
            473            473         77,398       -8,80808
            474            474         77,731       -8,81757
            475            475         78,064       -8,82648
            476            476         78,396       -8,83519
            477            477         78,729       -8,84318
            478            478         79,061        -8,8511
            479            479         79,394       -8,85827
            480            480         79,727       -8,86529
            481            481         80,059       -8,87159
            482            482         80,392       -8,87746
            483            483         80,725       -8,88263
            484            484         81,057       -8,88705
            485            485         81,390       -8,89079
            486            486         81,723       -8,89447
            487            487         82,055       -8,89784
            488            488         82,388       -8,90098
            489            489         82,721       -8,90318
            490            490         83,054        -8,9054
            491            491         83,386       -8,90723
            492            492         83,719        -8,9088
            493            493         84,052       -8,90936
            494            494         84,385       -8,91026
            495            495         84,718       -8,91109
            496            496         85,050       -8,91176
            497            497         85,383       -8,91183
            498            498         85,716       -8,91199
            499            499         86,049       -8,91199
            500            500         86,382       -8,91187
            501            501         86,715       -8,91129
            502            502         87,048       -8,91092
            503            503         87,380       -8,91055
            504            504         87,713       -8,91018
            505            505         88,046       -8,90968
            506            506         88,379       -8,90911
            507            507         88,712        -8,9085
            508            508         89,045       -8,90794
            509            509         89,377       -8,90735
            510            510         89,710        -8,9068
            511            511         90,043       -8,90628
            512            512         90,376       -8,90582
            513            513         90,709       -8,90546
            514            514         91,042       -8,90511
            515            515         91,375       -8,90484
            516            516         91,707        -8,9046
            517            517         92,040       -8,90453
            518            518         92,373       -8,90445
            519            519         92,706       -8,90442
            520            520         93,039       -8,90444
            521            521         93,372       -8,90455
            522            522         93,705       -8,90459
            523            523         94,037       -8,90463
            524            524         94,370       -8,90468
            525            525         94,703       -8,90451
            526            526         95,036       -8,90435
            527            527         95,369       -8,90424
            528            528         95,702       -8,90419
            529            529         96,034       -8,90403
            530            530         96,367       -8,90398
            531            531         96,700       -8,90388
            532            532         97,033       -8,90373
            533            533         97,366       -8,90363
            534            534         97,699       -8,90356
            535            535         98,032       -8,90356
            536            536         98,364       -8,90365
            537            537         98,697       -8,90381
            538            538         99,030       -8,90403
            539            539         99,363       -8,90467
            540            540         99,696       -8,90565
            541            541        100,029       -8,90693
            542            542        100,361       -8,90803
            543            543        100,694       -8,90915
            544            544        101,027       -8,91031
            545            545        101,360        -8,9116
            546            546        101,693       -8,91295
            547            547        102,025        -8,9144
            548            548        102,358       -8,91586
            549            549        102,691       -8,91761
            550            550        103,024       -8,91914
            551            551        103,357       -8,92149
            552            552        103,689       -8,92448
            553            553        104,022        -8,9276
            554            554        104,355       -8,93069
            555            555        104,688       -8,93388
            556            556        105,020       -8,93703
            557            557        105,353       -8,94138
            558            558        105,686       -8,94543
            559            559        106,018       -8,94955
            560            560        106,351       -8,95376
            561            561        106,684       -8,95843
            562            562        107,016       -8,96289
            563            563        107,349       -8,96732
            564            564        107,682       -8,97175
            565            565        108,015       -8,97615
            566            566        108,347       -8,98054
            567            567        108,680       -8,98492
            568            568        109,013        -8,9893
            569            569        109,345        -8,9936
            570            570        109,678         -8,998
            571            571        110,011       -9,00249
            572            572        110,343       -9,00705
            573            573        110,676       -9,01191
            574            574        111,009       -9,01678
            575            575        111,341       -9,02181
            576            576        111,674       -9,02733
            577            577        112,007       -9,03315
            578            578        112,339       -9,03882
            579            579        112,672        -9,0446
            580            580        113,005        -9,0505
            581            581        113,337       -9,05692
            582            582        113,670       -9,06326
            583            583        114,003       -9,06978
            584            584        114,335       -9,07644
            585            585        114,668       -9,08376
            586            586        115,000       -9,09088
            587            587        115,333       -9,09839
            588            588        115,665       -9,10614
            589            589        115,998       -9,11489
            590            590        116,331       -9,12366
            591            591        116,663       -9,13272
            592            592        116,996       -9,14174
            593            593        117,328       -9,15139
            594            594        117,661         -9,161
            595            595        117,993       -9,17076
            596            596        118,326       -9,18068
            597            597        118,658       -9,19087
            598            598        118,990       -9,20128
            599            599        119,323        -9,2124
            600            600        119,655        -9,2236
            601            601        119,988       -9,23594
            602            602        120,320       -9,24783
            603            603        120,653       -9,26011
            604            604        120,985       -9,27265
            605            605        121,317       -9,28607
            606            606        121,650       -9,29948
            607            607        121,982       -9,31322
            608            608        122,314       -9,32737
            609            609        122,647       -9,34163
            610            610        122,979         -9,356
            611            611        123,311       -9,37103
            612            612        123,643       -9,38653
            613            613        123,976       -9,40271
            614            614        124,308       -9,41896
            615            615        124,640       -9,43552
            616            616        124,972       -9,45236
            617            617        125,304       -9,47016
            618            618        125,637        -9,4879
            619            619        125,969       -9,50639
            620            620        126,301        -9,5251
            621            621        126,633       -9,54445
            622            622        126,965       -9,56425
            623            623        127,297       -9,58479
            624            624        127,629       -9,60599
            625            625        127,961       -9,62792
            626            626        128,293        -9,6498
            627            627        128,625       -9,67188
            628            628        128,957       -9,69446
            629            629        129,289       -9,71829
            630            630        129,621       -9,74311
            631            631        129,953       -9,76842
            632            632        130,284       -9,79422
            633            633        130,616       -9,82142
            634            634        130,948       -9,84893
            635            635        131,280       -9,87769
            636            636        131,611       -9,90671
            637            637        131,943       -9,93678
            638            638        132,275       -9,96704
            639            639        132,606       -9,99872
            640            640        132,938       -10,0317
            641            641        133,269       -10,0658
            642            642        133,601       -10,1001
            643            643        133,932        -10,136
            644            644        134,263       -10,1729
            645            645        134,595       -10,2109
            646            646        134,926       -10,2494
            647            647        135,257       -10,2894
            648            648        135,588       -10,3295
            649            649        135,920       -10,3719
            650            650        136,251       -10,4153
            651            651        136,582       -10,4601
            652            652        136,913       -10,5057
            653            653        137,244       -10,5539
            654            654        137,574       -10,6033
            655            655        137,905       -10,6539
            656            656        138,236       -10,7048
            657            657        138,567       -10,7557
            658            658        138,897       -10,8066
            659            659        139,228       -10,8574
            660            660        139,559       -10,9079
            661            661        139,889       -10,9667
            662            662        140,219       -11,0339
            663            663        140,549       -11,1199
            664            664        140,877       -11,2242
            665            665        141,209       -11,2488
            666            666        141,545       -11,1759
            667            667        141,884        -11,016
            668            668        142,224       -10,8336
            669            669        142,560       -10,7608
            670            670        142,893        -10,742
            671            671        143,225       -10,7633
            672            672        143,557       -10,8032
            673            673        143,887       -10,8693
            674            674        144,216       -10,9418
            675            675        144,546       -11,0207
            676            676        144,875       -11,1014
            677            677        145,205       -11,1904
            678            678        145,533       -11,2829
            679            679        145,862       -11,3782
            680            680        146,191       -11,4754
            681            681        146,520       -11,5775
            682            682        146,848        -11,684
            683            683        147,176       -11,7953
            684            684        147,504       -11,9099
            685            685        147,832       -12,0332
            686            686        148,159       -12,1616
            687            687        148,486       -12,2977
            688            688        148,813       -12,4395
            689            689        149,139       -12,5938
            690            690        149,465       -12,7579
            691            691        149,790       -12,9374
            692            692        150,115       -13,1286
            693            693        150,438        -13,346
            694            694        150,762       -13,5705
            695            695        151,085       -13,7898
            696            696        151,409       -13,9963
            697            697        151,735       -14,1595
            698            698        152,061       -14,3122
            699            699        152,388       -14,4486
            700            700        152,715       -14,5668
            701            701        153,046       -14,6215
            702            702        153,377       -14,6415
            703            703        153,711       -14,6189
            704            704        154,046        -14,566
            705            705        154,384       -14,4424
            706            706        154,723       -14,2841
            707            707        155,064       -14,0893
            708            708        155,406        -13,871
            709            709        155,750       -13,6012
            710            710        156,095       -13,3101
            711            711        156,441       -12,9999
            712            712        156,788       -12,6798
            713            713        157,135       -12,3555
            714            714        157,481       -12,0389
            715            715        157,827       -11,7366
            716            716        158,172       -11,4466
            717            717        158,516       -11,1898
            718            718        158,859       -10,9518
            719            719        159,201       -10,7349
            720            720        159,543       -10,5316
            721            721        159,883       -10,3589
            722            722        160,223       -10,1997
            723            723        160,562       -10,0563
            724            724        160,901       -9,92295
            725            725        161,238       -9,81236
            726            726        161,576       -9,70931
            727            727        161,913       -9,61449
            728            728        162,250       -9,52507
            729            729        162,586       -9,44809
            730            730        162,922       -9,37605
            731            731        163,258       -9,30964
            732            732        163,593       -9,24711
            733            733        163,928       -9,19549
            734            734        164,263       -9,15027
            735            735        164,598       -9,11265
            736            736        164,932       -9,08085
            737            737        165,266        -9,0544
            738            738        165,600       -9,03129
            739            739        165,934        -9,0104
            740            740        166,268       -8,99082
            741            741        166,601       -8,97648
            742            742        166,935       -8,96073
            743            743        167,269         -8,943
            744            744        167,602       -8,92392
            745            745        167,936       -8,90231
            746            746        168,270       -8,88124
            747            747        168,604       -8,86073
            748            748        168,938       -8,84006
            749            749        169,272       -8,81996
            750            750        169,605       -8,79979
            751            751        169,939       -8,78055
            752            752        170,273       -8,76263
            753            753        170,607       -8,74597
            754            754        170,940       -8,72959
            755            755        171,274       -8,71345
            756            756        171,608       -8,69764
            757            757        171,941        -8,6823
            758            758        172,275       -8,66742
            759            759        172,608       -8,65382
            760            760        172,942       -8,64062
            761            761        173,275       -8,62861
            762            762        173,609       -8,61691
            763            763        173,942       -8,60579
            764            764        174,276       -8,59481
            765            765        174,609        -8,5847
            766            766        174,942       -8,57462
            767            767        175,276       -8,56521
            768            768        175,609       -8,55572
            769            769        175,942       -8,54684
            770            770        176,276       -8,53767
            771            771        176,609       -8,52891
            772            772        176,942       -8,52094
            773            773        177,276       -8,51363
            774            774        177,609       -8,50639
            775            775        177,942       -8,49957
            776            776        178,275        -8,4932
            777            777        178,609       -8,48732
            778            778        178,942       -8,48127
            779            779        179,275       -8,47531
            780            780        179,608       -8,46972
            781            781        179,941       -8,46515
            782            782        180,275       -8,46022
            783            783        180,608       -8,45532
            784            784        180,941       -8,45054
            785            785        181,274       -8,44636
            786            786        181,607       -8,44217
            787            787        181,940        -8,4381
            788            788        182,273       -8,43412
            789            789        182,607       -8,43079
            790            790        182,940       -8,42733
            791            791        183,273       -8,42399
            792            792        183,606       -8,42072
            793            793        183,939       -8,41783
            794            794        184,272       -8,41483
            795            795        184,605        -8,4119
            796            796        184,938       -8,40907
            797            797        185,271        -8,4065
            798            798        185,604       -8,40388
            799            799        185,937       -8,40133
            800            800        186,271       -8,39883
            801            801        186,604        -8,3966
            802            802        186,937       -8,39438
            803            803        187,270       -8,39225
            804            804        187,603       -8,39018
            805            805        187,936       -8,38843
            806            806        188,269       -8,38663
            807            807        188,602       -8,38483
            808            808        188,935       -8,38303
            809            809        189,268       -8,38151
            810            810        189,601        -8,3799
            811            811        189,934       -8,37836
            812            812        190,267       -8,37689
            813            813        190,600       -8,37558
            814            814        190,933       -8,37432
            815            815        191,266       -8,37317
            816            816        191,599       -8,37208
            817            817        191,932       -8,37139
            818            818        192,265       -8,37052
            819            819        192,598        -8,3695
            820            820        192,931       -8,36838
            821            821        193,264        -8,3675
            822            822        193,597       -8,36635
            823            823        193,930       -8,36456
            824            824        194,263       -8,36226
            825            825        194,596        -8,3601
            826            826        194,929       -8,35804
            827            827        195,262       -8,35595
            828            828        195,595       -8,35384
            829            829        195,928       -8,35175
            830            830        196,262        -8,3497
            831            831        196,595        -8,3477
            832            832        196,928        -8,3457
            833            833        197,261       -8,34377
            834            834        197,594        -8,3418
            835            835        197,927       -8,33991
            836            836        198,260       -8,33816
            837            837        198,593       -8,34185
            838            838        198,924       -8,37943
            839            839        199,253       -8,46143
            840            840        199,582       -8,54094
            841            841        199,264       -8,23738
            842            842        198,958        -7,6772
            843            843        198,667       -6,80903
            844            844        198,386       -5,75514
            845            845        198,116       -4,44894
            846            846        197,848       -3,12395
            847            847        197,578       -1,82594
            848            848        197,306      -0,565975
            849            849        197,027       0,549845
            850            850        196,743        1,57797
            851            851        196,455        2,50362
            852            852        196,163         3,3601
            853            853        195,863        4,06302
            854            854        195,560         4,6959
            855            855        195,254         5,2536
            856            856        194,945        5,76339
            857            857        194,631        6,17136
            858            858        194,315        6,53612
            859            859        193,997        6,85609
            860            860        193,677        7,14718
            861            861        193,354        7,37865
            862            862        193,031        7,58564
            863            863        192,706        7,76667
            864            864        192,380         7,9309
            865            865        192,052        8,06204
            866            866        191,724        8,17898
            867            867        191,395        8,28078
            868            868        191,066        8,37309
            869            869        190,736        8,44691
            870            870        190,405        8,51288
            871            871        190,074        8,57073
            872            872        189,743        8,62344
            873            873        189,411        8,66479
            874            874        189,079        8,70158
            875            875        188,747        8,73378
            876            876        188,415        8,76389
            877            877        188,082        8,78912
            878            878        187,750         8,8108
            879            879        187,417        8,83016
            880            880        187,084        8,84795
            881            881        186,751        8,86211
            882            882        186,418        8,87484
            883            883        186,085        8,88578
            884            884        185,751        8,89553
            885            885        185,418        8,90309
            886            886        185,084        8,90957
            887            887        184,751        8,91477
            888            888        184,417        8,91953
            889            889        184,084        8,92271
            890            890        183,750        8,92557
            891            891        183,417        8,92772
            892            892        183,083        8,92933
            893            893        182,749        8,93005
            894            894        182,416        8,93113
            895            895        182,082        8,93217
            896            896        181,748        8,93287
            897            897        181,414        8,93274
            898            898        181,081        8,93254
            899            899        180,747        8,93204
            900            900        180,413        8,93134
            901            901        180,079        8,92942
            902            902        179,745        8,92783
            903            903        179,412        8,92606
            904            904        179,078        8,92408
            905            905        178,744        8,92177
            906            906        178,410        8,91931
            907            907        178,076        8,91613
            908            908        177,742        8,91269
            909            909        177,408        8,90892
            910            910        177,074        8,90517
            911            911        176,740        8,90126
            912            912        176,406        8,89723
            913            913        176,073        8,89277
            914            914        175,739        8,88845
            915            915        175,405          8,884
            916            916        175,071         8,8794
            917            917        174,737        8,87436
            918            918        174,403        8,86929
            919            919        174,069        8,86406
            920            920        173,735        8,85872
            921            921        173,401        8,85275
            922            922        173,067        8,84699
            923            923        172,733        8,84116
            924            924        172,399        8,83523
            925            925        172,065        8,82893
            926            926        171,731        8,82264
            927            927        171,397         8,8163
            928            928        171,063        8,80993
            929            929        170,728        8,80316
            930            930        170,394         8,7965
            931            931        170,060        8,78984
            932            932        169,726        8,78321
            933            933        169,392        8,77668
            934            934        169,058        8,77031
            935            935        168,724        8,76407
            936            936        168,390        8,75793
            937            937        168,056        8,75227
            938            938        167,722        8,74651
            939            939        167,388        8,74084
            940            940        167,054        8,73531
            941            941        166,720         8,7302
            942            942        166,386        8,72501
            943            943        166,052        8,72022
            944            944        165,718        8,71568
            945            945        165,384        8,71209
            946            946        165,051        8,70836
            947            947        164,717        8,70545
            948            948        164,383        8,70324
            949            949        164,049        8,70173
            950            950        163,715        8,70023
            951            951        163,381         8,6991
            952            952        163,048         8,6983
            953            953        162,714        8,69796
            954            954        162,380        8,69806
            955            955        162,046        8,69935
            956            956        161,713         8,7009
            957            957        161,379        8,70311
            958            958        161,045        8,70506
            959            959        160,712        8,70709
            960            960        160,378        8,70943
            961            961        160,044        8,71262
            962            962        159,711         8,7159
            963            963        159,377        8,71948
            964            964        159,044        8,72325
            965            965        158,710        8,72812
            966            966        158,376        8,73249
            967            967        158,043        8,73676
            968            968        157,709        8,74105
            969            969        157,376        8,74543
            970            970        157,042        8,74956
            971            971        156,709        8,75372
            972            972        156,375        8,75779
            973            973        156,041        8,76191
            974            974        155,708         8,7639
            975            975        155,374        8,76643
            976            976        155,040        8,76922
            977            977        154,707        8,77187
            978            978        154,373        8,77432
            979            979        154,040        8,77672
            980            980        153,706        8,77907
            981            981        153,372        8,78102
            982            982        153,038        8,78303
            983            983        152,705        8,78491
            984            984        152,371        8,78666
            985            985        152,037        8,78802
            986            986        151,704        8,78936
            987            987        151,370        8,79053
            988            988        151,036         8,7916
            989            989        150,703        8,79228
            990            990        150,369        8,79305
            991            991        150,035        8,79377
            992            992        149,701        8,79447
            993            993        149,368        8,79487
            994            994        149,034        8,79533
            995            995        148,700         8,7957
            996            996        148,366        8,79601
            997            997        148,033        8,79608
            998            998        147,699        8,79622
            999            999        147,365        8,79629
           1000           1000        147,031        8,79628
           1001           1001        146,697        8,79608
           1002           1002        146,364        8,79581
           1003           1003        146,030        8,79538
           1004           1004        145,696        8,79485
           1005           1005        145,362        8,79402
           1006           1006        145,028        8,79332
           1007           1007        144,695        8,79251
           1008           1008        144,361        8,79163
           1009           1009        144,027        8,79052
           1010           1010        143,693        8,78947
           1011           1011        143,359        8,78833
           1012           1012        143,026        8,78713
           1013           1013        142,692        8,78586
           1014           1014        142,358        8,78469
           1015           1015        142,024        8,78345
           1016           1016        141,690        8,78213
           1017           1017        141,356        8,78069
           1018           1018        141,023        8,77921
           1019           1019        140,689        8,77746
           1020           1020        140,355        8,77571
           1021           1021        140,021        8,77248
           1022           1022        139,687        8,76909
           1023           1023        139,353        8,76427
           1024           1024        139,019        8,75829
           1025           1025        138,685        8,75129
           1026           1026        138,351        8,74389
           1027           1027        138,017        8,73578
           1028           1028        137,683        8,72715
           1029           1029        137,349        8,71696
           1030           1030        137,014        8,70753
           1031           1031        136,680        8,69826
           1032           1032        136,346        8,68906
           1033           1033        136,012        8,67962
           1034           1034        135,678        8,67044
           1035           1035        135,344        8,66195
           1036           1036        135,010        8,65401
           1037           1037        134,676        8,64728
           1038           1038        134,342         8,6415
           1039           1039        134,008        8,63709
           1040           1040        133,674        8,63388
           1041           1041        133,340        8,63153
           1042           1042        133,006        8,63018
           1043           1043        132,672        8,63048
           1044           1044        132,339        8,63222
           1045           1045        132,005        8,63516
           1046           1046        131,671        8,63839
           1047           1047        131,338        8,64232
           1048           1048        131,004        8,64683
           1049           1049        130,671        8,65257
           1050           1050        130,337        8,65937
           1051           1051        130,004        8,66725
           1052           1052        129,670        8,67513
           1053           1053        129,337        8,68305
           1054           1054        129,003        8,69092
           1055           1055        128,670         8,6989
           1056           1056        128,336        8,70696
           1057           1057        128,003        8,71519
           1058           1058        127,669        8,72321
           1059           1059        127,336        8,73114
           1060           1060        127,002        8,73914
           1061           1061        126,669         8,7463
           1062           1062        126,335        8,75366
           1063           1063        126,002        8,76097
           1064           1064        125,668        8,76797
           1065           1065        125,335        8,77398
           1066           1066        125,001        8,78007
           1067           1067        124,668        8,78584
           1068           1068        124,334        8,79136
           1069           1069        124,000         8,7961
           1070           1070        123,667        8,80079
           1071           1071        123,333        8,80469
           1072           1072        122,999        8,80848
           1073           1073        122,666         8,8112
           1074           1074        122,332        8,81401
           1075           1075        121,998        8,81649
           1076           1076        121,665        8,81853
           1077           1077        121,331        8,82017
           1078           1078        120,997        8,82195
           1079           1079        120,663        8,82366
           1080           1080        120,330        8,82504
           1081           1081        119,996        8,82582
           1082           1082        119,662         8,8261
           1083           1083        119,328        8,82579
           1084           1084        118,995        8,82528
           1085           1085        118,661        8,82432
           1086           1086        118,327        8,82347
           1087           1087        117,993        8,82252
           1088           1088        117,659         8,8212
           1089           1089        117,325        8,81889
           1090           1090        116,991        8,81656
           1091           1091        116,658        8,81394
           1092           1092        116,324        8,81102
           1093           1093        115,990        8,80772
           1094           1094        115,656        8,80464
           1095           1095        115,322        8,80159
           1096           1096        114,988         8,7985
           1097           1097        114,654        8,79521
           1098           1098        114,320        8,79194
           1099           1099        113,986        8,78868
           1100           1100        113,652        8,78547
           1101           1101        113,318        8,78221
           1102           1102        112,985        8,77909
           1103           1103        112,651        8,77598
           1104           1104        112,317        8,77289
           1105           1105        111,983         8,7701
           1106           1106        111,649        8,76728
           1107           1107        111,315        8,76451
           1108           1108        110,981        8,76179
           1109           1109        110,647        8,75928
           1110           1110        110,313        8,75673
           1111           1111        109,979        8,75423
           1112           1112        109,646        8,75173
           1113           1113        109,312        8,74945
           1114           1114        108,978         8,7472
           1115           1115        108,644          8,745
           1116           1116        108,310        8,74288
           1117           1117        107,976        8,74111
           1118           1118        107,642        8,73931
           1119           1119        107,308        8,73758
           1120           1120        106,975        8,73593
           1121           1121        106,641        8,73466
           1122           1122        106,307        8,73325
           1123           1123        105,973        8,73178
           1124           1124        105,639        8,73037
           1125           1125        105,305        8,72908
           1126           1126        104,971        8,72777
           1127           1127        104,638        8,72652
           1128           1128        104,304        8,72538
           1129           1129        103,970        8,72455
           1130           1130        103,636        8,72371
           1131           1131        103,302        8,72303
           1132           1132        102,968        8,72282
           1133           1133        102,635        8,72291
           1134           1134        102,301        8,72281
           1135           1135        101,967        8,72271
           1136           1136        101,633        8,72269
           1137           1137        101,299        8,72283
           1138           1138        100,966         8,7229
           1139           1139        100,632        8,72303
           1140           1140        100,298         8,7232
           1141           1141         99,964         8,7235
           1142           1142         99,630        8,72376
           1143           1143         99,297          8,724
           1144           1144         98,963        8,72422
           1145           1145         98,629        8,72445
           1146           1146         98,295        8,72457
           1147           1147         97,961        8,72456
           1148           1148         97,628        8,72449
           1149           1149         97,294        8,72434
           1150           1150         96,960        8,72429
           1151           1151         96,626        8,72426
           1152           1152         96,292        8,72429
           1153           1153         95,959        8,72444
           1154           1154         95,625        8,72458
           1155           1155         95,291        8,72475
           1156           1156         94,957        8,72498
           1157           1157         94,623        8,72555
           1158           1158         94,290        8,72605
           1159           1159         93,956        8,72655
           1160           1160         93,622        8,72704
           1161           1161         93,288        8,72766
           1162           1162         92,954        8,72812
           1163           1163         92,621        8,72841
           1164           1164         92,287        8,72861
           1165           1165         91,953        8,72863
           1166           1166         91,619        8,72875
           1167           1167         91,285         8,7289
           1168           1168         90,952        8,72907
           1169           1169         90,618        8,72941
           1170           1170         90,284        8,72979
           1171           1171         89,950        8,73018
           1172           1172         89,616        8,73063
           1173           1173         89,283        8,73153
           1174           1174         88,949        8,73238
           1175           1175         88,615        8,73323
           1176           1176         88,281        8,73408
           1177           1177         87,947        8,73522
           1178           1178         87,614        8,73616
           1179           1179         87,280        8,73706
           1180           1180         86,946        8,73797
           1181           1181         86,612        8,73873
           1182           1182         86,278        8,73953
           1183           1183         85,945        8,74032
           1184           1184         85,611        8,74119
           1185           1185         85,277        8,74191
           1186           1186         84,943         8,7426
           1187           1187         84,609        8,74334
           1188           1188         84,276        8,74408
           1189           1189         83,942        8,74487
           1190           1190         83,608        8,74578
           1191           1191         83,274        8,74683
           1192           1192         82,940        8,74794
           1193           1193         82,607        8,74932
           1194           1194         82,273        8,75061
           1195           1195         81,939        8,75193
           1196           1196         81,605        8,75322
           1197           1197         81,272        8,75455
           1198           1198         80,938        8,75582
           1199           1199         80,604        8,75706
           1200           1200         80,270        8,75827
           1201           1201         79,936        8,75942
           1202           1202         79,603        8,76057
           1203           1203         79,269        8,76167
           1204           1204         78,935        8,76278
           1205           1205         78,601        8,76407
           1206           1206         78,267        8,76529
           1207           1207         77,934        8,76646
           1208           1208         77,600        8,76762
           1209           1209         77,266        8,76888
           1210           1210         76,932        8,77011
           1211           1211         76,598        8,77141
           1212           1212         76,265        8,77271
           1213           1213         75,931        8,77405
           1214           1214         75,597        8,77547
           1215           1215         75,263        8,77703
           1216           1216         74,930        8,77851
           1217           1217         74,596        8,78034
           1218           1218         74,262        8,78261
           1219           1219         73,928         8,7865
           1220           1220         73,595        8,79158
           1221           1221         73,261        8,79086
           1222           1222         72,927        8,79001
           1223           1223         72,593        8,78952
           1224           1224         72,259        8,78913
           1225           1225         71,925        8,78893
           1226           1226         71,591        8,78871
           1227           1227         71,258        8,78865
           1228           1228         70,924        8,78866
           1229           1229         70,590        8,78905
           1230           1230         70,256        8,78936
           1231           1231         69,922        8,78969
           1232           1232         69,588        8,79014
           1233           1233         69,255        8,79115
           1234           1234         68,921        8,79197
           1235           1235         68,587        8,79276
           1236           1236         68,253        8,79356
           1237           1237         67,919        8,79466
           1238           1238         67,586        8,79568
           1239           1239         67,252        8,79676
           1240           1240         66,918        8,79784
           1241           1241         66,584        8,79885
           1242           1242         66,250        8,79983
           1243           1243         65,917        8,80081
           1244           1244         65,583        8,80186
           1245           1245         65,249         8,8027
           1246           1246         64,915        8,80354
           1247           1247         64,581        8,80435
           1248           1248         64,247         8,8052
           1249           1249         63,914        8,80582
           1250           1250         63,580        8,80641
           1251           1251         63,246        8,80686
           1252           1252         62,912        8,80715
           1253           1253         62,578        8,80741
           1254           1254         62,244         8,8074
           1255           1255         61,911        8,80671
           1256           1256         61,577        8,80581
           1257           1257         61,243        8,80427
           1258           1258         60,909        8,80231
           1259           1259         60,575         8,7996
           1260           1260         60,241        8,79625
           1261           1261         59,907        8,79153
           1262           1262         59,573        8,78554
           1263           1263         59,239        8,77774
           1264           1264         58,905        8,76875
           1265           1265         58,571        8,75665
           1266           1266         58,237         8,7431
           1267           1267         57,902        8,72739
           1268           1268         57,568        8,71009
           1269           1269         57,234         8,6888
           1270           1270         56,899        8,66613
           1271           1271         56,565        8,64144
           1272           1272         56,230        8,61531
           1273           1273         55,896         8,5852
           1274           1274         55,561        8,55172
           1275           1275         55,226        8,51649
           1276           1276         54,892        8,48014
           1277           1277         54,557        8,44031
           1278           1278         54,222        8,39722
           1279           1279         53,887        8,35193
           1280           1280         53,552        8,30505
           1281           1281         53,217        8,25698
           1282           1282         52,882        8,20771
           1283           1283         52,546        8,15747
           1284           1284         52,211        8,10698
           1285           1285         51,876        8,05881
           1286           1286         51,541        8,01016
           1287           1287         51,206        7,96152
           1288           1288         50,871        7,91309
           1289           1289         50,536        7,86679
           1290           1290         50,201        7,82156
           1291           1291         49,866        7,77814
           1292           1292         49,532        7,73632
           1293           1293         49,197        7,69765
           1294           1294         48,862        7,65877
           1295           1295         48,527        7,62054
           1296           1296         48,193        7,58337
           1297           1297         47,858        7,54961
           1298           1298         47,523        7,51709
           1299           1299         47,189        7,48652
           1300           1300         46,854        7,45733
           1301           1301         46,520        7,43023
           1302           1302         46,185        7,39995
           1303           1303         45,851         7,3663
           1304           1304         45,516        7,33828
           1305           1305         45,182        7,32069
           1306           1306         44,848        7,30364
           1307           1307         44,514        7,28688
           1308           1308         44,180         7,2705
           1309           1309         43,846        7,25521
           1310           1310         43,512        7,24031
           1311           1311         43,177        7,22603
           1312           1312         42,843        7,21202
           1313           1313         42,509        7,20063
           1314           1314         42,175        7,18903
           1315           1315         41,841        7,17752
           1316           1316         41,507        7,16665
           1317           1317         41,173        7,15689
           1318           1318         40,839        7,14749
           1319           1319         40,505         7,1388
           1320           1320         40,172        7,13073
           1321           1321         39,838        7,12285
           1322           1322         39,504        7,11488
           1323           1323         39,170         7,1067
           1324           1324         38,836        7,09826
           1325           1325         38,502        7,09202
           1326           1326         38,168        7,08636
           1327           1327         37,834        7,08097
           1328           1328         37,500         7,0758
           1329           1329         37,167        7,07065
           1330           1330         36,833        7,06536
           1331           1331         36,499        7,06048
           1332           1332         36,165        7,05578
           1333           1333         35,831        7,04995
           1334           1334         35,497        7,04134
           1335           1335         35,163        7,03399
           1336           1336         34,830        7,03044
           1337           1337         34,496        7,02915
           1338           1338         34,162        7,02731
           1339           1339         33,828        7,02569
           1340           1340         33,494          7,024
           1341           1341         33,161        7,02249
           1342           1342         32,827        7,02093
           1343           1343         32,493        7,01939
           1344           1344         32,159        7,01783
           1345           1345         31,826        7,01625
           1346           1346         31,492        7,01478
           1347           1347         31,158        7,00926
           1348           1348         30,824         6,9952
           1349           1349         30,490        6,97721
           1350           1350         30,156        6,97294
           1351           1351         29,822         6,9729
           1352           1352         29,489        6,97364
           1353           1353         29,155        6,97296
           1354           1354         28,821        6,97203
           1355           1355         28,487         6,9708
           1356           1356         28,154        6,96965
           1357           1357         27,820        6,96827
           1358           1358         27,486        6,96838
           1359           1359         27,152        6,96806
           1360           1360         26,819        6,96769
           1361           1361         26,485        6,96734
           1362           1362         26,151        6,96757
           1363           1363         25,818        6,96761
           1364           1364         25,484         6,9676
           1365           1365         25,150        6,96753
           1366           1366         24,816        6,96739
           1367           1367         24,483         6,9672
           1368           1368         24,149        6,96705
           1369           1369         23,815        6,96688
           1370           1370         23,481        6,96669
           1371           1371         23,148        6,96663
           1372           1372         22,814        6,96661
           1373           1373         22,480        6,96676
           1374           1374         22,147        6,96722
           1375           1375         21,813        6,96655
           1376           1376         21,479        6,96444
           1377           1377         21,145        6,96132
           1378           1378         20,812        6,95801
           1379           1379         20,478        6,95514
           1380           1380         20,144        6,95234
           1381           1381         19,810        6,94942
           1382           1382         19,476        6,94632
           1383           1383         19,143        6,94403
           1384           1384         18,809        6,94157
           1385           1385         18,475        6,93717
           1386           1386         18,141        6,93217
           1387           1387         17,807        6,92934
           1388           1388         17,474        6,93099
           1389           1389         17,140        6,93417
           1390           1390         16,806        6,93019
           1391           1391         16,473        6,92615
           1392           1392         16,139        6,92191
           1393           1393         15,805        6,91747
           1394           1394         15,471        6,91311
           1395           1395         15,137        6,90873
           1396           1396         14,803        6,90416
           1397           1397         14,470        6,89922
           1398           1398         14,136        6,88963
           1399           1399         13,802        6,88231
           1400           1400         13,468        6,88054
           1401           1401         13,134        6,87987
           1402           1402         12,801        6,88002
           1403           1403         12,467        6,87983
           1404           1404         12,133        6,87939
           1405           1405         11,800        6,87907
           1406           1406         11,466        6,87851
           1407           1407         11,132        6,87776
           1408           1408         10,798        6,87649
           1409           1409         10,465        6,87527
           1410           1410         10,131        6,87366
           1411           1411          9,797        6,87239
           1412           1412          9,463        6,87178
           1413           1413          9,130        6,87064
           1414           1414          8,796        6,87041
           1415           1415          8,462        6,87002
           1416           1416          8,128        6,86966
           1417           1417          7,795        6,86941
           1418           1418          7,461        6,86945
           1419           1419          7,127         6,8694
           1420           1420          6,794        6,86954
           1421           1421          6,460        6,86999
           1422           1422          6,126        6,87422
           1423           1423          5,793        6,87434
           1424           1424          5,459        6,87353
           1425           1425          5,125        6,87237
           1426           1426          4,791        6,87339
           1427           1427          4,458        6,87379
           1428           1428          4,124        6,87453
           1429           1429          3,790        6,87531
           1430           1430          3,457        6,87638
           1431           1431          3,123        6,87732
           1432           1432          2,789        6,87837
           1433           1433          2,455        6,87948
           1434           1434          2,122        6,88083
           1435           1435          1,788        6,88228
           1436           1436          1,454        6,88386
           1437           1437          1,121        6,88567
           1438           1438          0,787        6,88776
           1439           1439          0,453         6,8895
           1440           1440          0,120        6,89118
           1441           1441         -0,214        6,89291
           1442           1442         -0,548        6,89435
           1443           1443         -0,881        6,89595
           1444           1444         -1,215        6,89756
           1445           1445         -1,549        6,89921
           1446           1446         -1,883        6,90102
           1447           1447         -2,216        6,90294
           1448           1448         -2,550        6,90488
           1449           1449         -2,884        6,90684
           1450           1450         -3,217        6,90893
           1451           1451         -3,551        6,91071
           1452           1452         -3,885         6,9125
           1453           1453         -4,218        6,91435
           1454           1454         -4,552        6,91597
           1455           1455         -4,886         6,9177
           1456           1456         -5,219        6,91944
           1457           1457         -5,553        6,92124
           1458           1458         -5,887        6,92345
           1459           1459         -6,220        6,92557
           1460           1460         -6,554        6,92775
           1461           1461         -6,888        6,93001
           1462           1462         -7,222        6,93284
           1463           1463         -7,555        6,93562
           1464           1464         -7,889        6,93834
           1465           1465         -8,223        6,94106
           1466           1466         -8,556        6,94417
           1467           1467         -8,890        6,94702
           1468           1468         -9,224         6,9499
           1469           1469         -9,557        6,95291
           1470           1470         -9,891        6,95601
           1471           1471        -10,225        6,95921
           1472           1472        -10,558        6,96243
           1473           1473        -10,892         6,9656
           1474           1474        -11,226        6,96885
           1475           1475        -11,559        6,97183
           1476           1476        -11,893        6,97482
           1477           1477        -12,227        6,97787
           1478           1478        -12,560        6,98061
           1479           1479        -12,894        6,98355
           1480           1480        -13,228        6,98647
           1481           1481        -13,561         6,9895
           1482           1482        -13,895        6,99301
           1483           1483        -14,229        6,99582
           1484           1484        -14,562        6,99819
           1485           1485        -14,896        7,00241
           1486           1486        -15,230        7,00761
           1487           1487        -15,563        7,01213
           1488           1488        -15,897        7,01644
           1489           1489        -16,231        7,02082
           1490           1490        -16,564        7,02525
           1491           1491        -16,898        7,02961
           1492           1492        -17,232         7,0339
           1493           1493        -17,565        7,03849
           1494           1494        -17,899        7,04303
           1495           1495        -18,233        7,04623
           1496           1496        -18,566        7,04906
           1497           1497        -18,900        7,05321
           1498           1498        -19,234        7,05693
           1499           1499        -19,567        7,06061
           1500           1500        -19,901        7,06429
           1501           1501        -20,235        7,06802
           1502           1502        -20,568        7,07192
           1503           1503        -20,902        7,07587
           1504           1504        -21,235        7,07978
           1505           1505        -21,569        7,08369
           1506           1506        -21,903        7,08769
           1507           1507        -22,236        7,09169
           1508           1508        -22,570        7,09578
           1509           1509        -22,904        7,09985
           1510           1510        -23,237        7,10418
           1511           1511        -23,571        7,10859
           1512           1512        -23,905        7,11306
           1513           1513        -24,238        7,11755
           1514           1514        -24,572         7,1222
           1515           1515        -24,906        7,12676
           1516           1516        -25,239        7,13125
           1517           1517        -25,573         7,1356
           1518           1518        -25,907        7,14004
           1519           1519        -26,240        7,14442
           1520           1520        -26,574        7,14837
           1521           1521        -26,908        7,15166
           1522           1522        -27,241        7,15829
           1523           1523        -27,575        7,16284
           1524           1524        -27,909        7,16921
           1525           1525        -28,242        7,17568
           1526           1526        -28,576        7,18127
           1527           1527        -28,909        7,18716
           1528           1528        -29,243        7,19245
           1529           1529        -29,577        7,19739
           1530           1530        -29,910        7,20434
           1531           1531        -30,244        7,21267
           1532           1532        -30,578        7,22074
           1533           1533        -30,911        7,22617
           1534           1534        -31,245        7,23169
           1535           1535        -31,578        7,23756
           1536           1536        -31,912        7,24332
           1537           1537        -32,246        7,24912
           1538           1538        -32,579        7,25423
           1539           1539        -32,913         7,2575
           1540           1540        -33,247        7,26326
           1541           1541        -33,580        7,26968
           1542           1542        -33,914        7,27182
           1543           1543        -34,248        7,27848
           1544           1544        -34,581        7,28572
           1545           1545        -34,915        7,29262
           1546           1546        -35,248        7,29718
           1547           1547        -35,582        7,30218
           1548           1548        -35,916        7,30766
           1549           1549        -36,249        7,31444
           1550           1550        -36,583        7,32178
           1551           1551        -36,917        7,32848
           1552           1552        -37,250        7,33518
           1553           1553        -37,584        7,34189
           1554           1554        -37,918        7,34847
           1555           1555        -38,251        7,35519
           1556           1556        -38,585        7,36186
           1557           1557        -38,918         7,3685
           1558           1558        -39,252        7,37554
           1559           1559        -39,586        7,37974
           1560           1560        -39,919        7,37527
           1561           1561        -40,253        7,36671
           1562           1562        -40,587        7,37715
           1563           1563        -40,920        7,38722
           1564           1564        -41,254        7,39567
           1565           1565        -41,588        7,40146
           1566           1566        -41,921        7,40122
           1567           1567        -42,255         7,4041
           1568           1568        -42,589        7,41251
           1569           1569        -42,922        7,42196
           1570           1570        -43,256        7,42825
           1571           1571        -43,589        7,44227
           1572           1572        -43,923        7,46811
           1573           1573        -44,256        7,50137
           1574           1574        -44,590        7,49624
           1575           1575        -44,924        7,49793
           1576           1576        -45,257        7,50002
           1577           1577        -45,591        7,49981
           1578           1578        -45,925         7,5038
           1579           1579        -46,258        7,50549
           1580           1580        -46,592        7,50961
           1581           1581        -46,926        7,51458
           1582           1582        -47,259        7,52012
           1583           1583        -47,593        7,52592
           1584           1584        -47,927        7,53296
           1585           1585        -48,260        7,54098
           1586           1586        -48,594        7,55396
           1587           1587        -48,927        7,56404
           1588           1588        -49,261        7,57451
           1589           1589        -49,595        7,58534
           1590           1590        -49,928        7,59582
           1591           1591        -50,262        7,60599
           1592           1592        -50,595        7,61693
           1593           1593        -50,929        7,63095
           1594           1594        -51,263        7,64379
           1595           1595        -51,596        7,65523
           1596           1596        -51,930        7,66667
           1597           1597        -52,263        7,68024
           1598           1598        -52,597        7,69032
           1599           1599        -52,930        7,70139
           1600           1600        -53,264        7,71276
           1601           1601        -53,598        7,72458
           1602           1602        -53,931        7,73499
           1603           1603        -54,265        7,74591
           1604           1604        -54,598        7,75676
           1605           1605        -54,932        7,76784
           1606           1606        -55,266        7,77941
           1607           1607        -55,599        7,79105
           1608           1608        -55,933        7,80273
           1609           1609        -56,266        7,81386
           1610           1610        -56,600        7,82415
           1611           1611        -56,934         7,8368
           1612           1612        -57,267        7,84968
           1613           1613        -57,601        7,86264
           1614           1614        -57,934        7,87325
           1615           1615        -58,268        7,88482
           1616           1616        -58,602        7,89735
           1617           1617        -58,935        7,90606
           1618           1618        -59,269        7,91359
           1619           1619        -59,603        7,92571
           1620           1620        -59,936        7,94323
           1621           1621        -60,270        7,96138
           1622           1622        -60,603        7,97013
           1623           1623        -60,937        7,97614
           1624           1624        -61,271        7,98419
           1625           1625        -61,604        7,99262
           1626           1626        -61,938        8,00075
           1627           1627        -62,271        8,01445
           1628           1628        -62,605        8,03412
           1629           1629        -62,938        8,05474
           1630           1630        -63,272        8,06891
           1631           1631        -63,606        8,08196
           1632           1632        -63,939        8,09294
           1633           1633        -64,273        8,10397
           1634           1634        -64,606        8,12054
           1635           1635        -64,940        8,13427
           1636           1636        -65,274        8,14882
           1637           1637        -65,607        8,15742
           1638           1638        -65,941        8,17234
           1639           1639        -66,274        8,18806
           1640           1640        -66,608        8,20832
           1641           1641        -66,942        8,22623
           1642           1642        -67,275        8,23714
           1643           1643        -67,609        8,25237
           1644           1644        -67,942        8,26471
           1645           1645        -68,276        8,27688
           1646           1646        -68,610        8,29114
           1647           1647        -68,943          8,308
           1648           1648        -69,277        8,32551
           1649           1649        -69,610        8,34303
           1650           1650        -69,944        8,36044
           1651           1651        -70,278         8,3762
           1652           1652        -70,611        8,38889
           1653           1653        -70,945        8,40111
           1654           1654        -71,278        8,41483
           1655           1655        -71,612        8,42831
           1656           1656        -71,946        8,44172
           1657           1657        -72,279        8,45783
           1658           1658        -72,613        8,47058
           1659           1659        -72,946        8,48831
           1660           1660        -73,280        8,50568
           1661           1661        -73,614        8,52001
           1662           1662        -73,947        8,52966
           1663           1663        -74,281        8,53992
           1664           1664        -74,615        8,55063
           1665           1665        -74,948        8,56149
           1666           1666        -75,282        8,57185
           1667           1667        -75,616        8,57706
           1668           1668        -75,949        8,58416
           1669           1669        -76,283        8,59739
           1670           1670        -76,616        8,60684
           1671           1671        -76,950        8,60859
           1672           1672        -77,284        8,60659
           1673           1673        -77,618         8,6075
           1674           1674        -77,951        8,60237
           1675           1675        -78,285         8,6024
           1676           1676        -78,619        8,60175
           1677           1677        -78,952        8,60332
           1678           1678        -79,286        8,59543
           1679           1679        -79,620        8,58601
           1680           1680        -79,953        8,61308
           1681           1681        -79,619        8,72172
           1682           1682        -79,285        8,79433
           1683           1683        -78,952        8,64698
           1684           1684        -78,622        8,09183
           1685           1685        -78,293        7,23239
           1686           1686        -77,967        5,84473
           1687           1687        -77,642        4,36214
           1688           1688        -77,317        2,85315
           1689           1689        -76,992         1,3743
           1690           1690        -76,666      0,0466287
           1691           1691        -76,340       -1,16937
           1692           1692        -76,013        -2,2546
           1693           1693        -75,686       -3,25834
           1694           1694        -75,358       -4,06516
           1695           1695        -75,029       -4,78404
           1696           1696        -74,700        -5,4121
           1697           1697        -74,370        -5,9823
           1698           1698        -74,040       -6,42793
           1699           1699        -73,709       -6,82158
           1700           1700        -73,378       -7,16059
           1701           1701        -73,047       -7,46558
           1702           1702        -72,715       -7,68733
           1703           1703        -72,384       -7,88185
           1704           1704        -72,052       -8,04577
           1705           1705        -71,720        -8,1942
           1706           1706        -71,388       -8,30293
           1707           1707        -71,055       -8,39588
           1708           1708        -70,723       -8,47155
           1709           1709        -70,390       -8,53281
           1710           1710        -70,057       -8,57068
           1711           1711        -69,725       -8,60362
           1712           1712        -69,392       -8,63139
           1713           1713        -69,059       -8,65085
           1714           1714        -68,726       -8,65316
           1715           1715        -68,393       -8,65409
           1716           1716        -68,060       -8,65062
           1717           1717        -67,727        -8,6405
           1718           1718        -67,394       -8,62815
           1719           1719        -67,061       -8,61838
           1720           1720        -66,728        -8,6077
           1721           1721        -66,395       -8,59604
           1722           1722        -66,062        -8,5816
           1723           1723        -65,729       -8,56132
           1724           1724        -65,396       -8,53752
           1725           1725        -65,063       -8,51571
           1726           1726        -64,730       -8,49827
           1727           1727        -64,397       -8,47687
           1728           1728        -64,063         -8,456
           1729           1729        -63,730       -8,43232
           1730           1730        -63,397       -8,40875
           1731           1731        -63,064       -8,38554
           1732           1732        -62,731        -8,3623
           1733           1733        -62,398       -8,33876
           1734           1734        -62,065       -8,32128
           1735           1735        -61,732        -8,3034
           1736           1736        -61,398       -8,28294
           1737           1737        -61,065       -8,25791
           1738           1738        -60,732        -8,2368
           1739           1739        -60,399       -8,21598
           1740           1740        -60,066       -8,19512
           1741           1741        -59,733       -8,17438
           1742           1742        -59,400       -8,15359
           1743           1743        -59,067       -8,13336
           1744           1744        -58,733       -8,11471
           1745           1745        -58,400       -8,09707
           1746           1746        -58,067       -8,07959
           1747           1747        -57,734       -8,05787
           1748           1748        -57,401        -8,0338
           1749           1749        -57,068       -8,00859
           1750           1750        -56,735       -7,98599
           1751           1751        -56,402       -7,97216
           1752           1752        -56,068        -7,9583
           1753           1753        -55,735       -7,94032
           1754           1754        -55,402       -7,92627
           1755           1755        -55,069       -7,91008
           1756           1756        -54,736       -7,89168
           1757           1757        -54,403       -7,87775
           1758           1758        -54,070       -7,86402
           1759           1759        -53,737       -7,84496
           1760           1760        -53,404       -7,82633
           1761           1761        -53,070       -7,81057
           1762           1762        -52,737       -7,79464
           1763           1763        -52,404       -7,77875
           1764           1764        -52,071       -7,76497
           1765           1765        -51,738       -7,75179
           1766           1766        -51,405       -7,73935
           1767           1767        -51,072       -7,72782
           1768           1768        -50,739       -7,71639
           1769           1769        -50,406        -7,7051
           1770           1770        -50,073       -7,68912
           1771           1771        -49,740       -7,67637
           1772           1772        -49,407       -7,66487
           1773           1773        -49,073       -7,65532
           1774           1774        -48,740       -7,64304
           1775           1775        -48,407       -7,63163
           1776           1776        -48,074       -7,62022
           1777           1777        -47,741       -7,60827
           1778           1778        -47,408       -7,59614
           1779           1779        -47,075       -7,59379
           1780           1780        -46,742       -7,60596
           1781           1781        -46,409       -7,60879
           1782           1782        -46,076       -7,59291
           1783           1783        -45,743       -7,57412
           1784           1784        -45,410       -7,55764
           1785           1785        -45,077       -7,54206
           1786           1786        -44,744       -7,52729
           1787           1787        -44,411       -7,51369
           1788           1788        -44,077       -7,50161
           1789           1789        -43,744        -7,4908
           1790           1790        -43,411       -7,48218
           1791           1791        -43,078       -7,47462
           1792           1792        -42,745       -7,46557
           1793           1793        -42,412       -7,45508
           1794           1794        -42,079       -7,44436
           1795           1795        -41,746       -7,43413
           1796           1796        -41,413       -7,42387
           1797           1797        -41,080       -7,41359
           1798           1798        -40,747       -7,40356
           1799           1799        -40,414       -7,39329
           1800           1800        -40,081         -7,383
           1801           1801        -39,748       -7,37278
           1802           1802        -39,414       -7,36261
           1803           1803        -39,081       -7,35242
           1804           1804        -38,748       -7,34229
           1805           1805        -38,415       -7,33219
           1806           1806        -38,082       -7,32195
           1807           1807        -37,749       -7,31183
           1808           1808        -37,416       -7,30151
           1809           1809        -37,083         -7,291
           1810           1810        -36,750       -7,28151
           1811           1811        -36,417       -7,27167
           1812           1812        -36,084       -7,26087
           1813           1813        -35,751       -7,25173
           1814           1814        -35,418       -7,24208
           1815           1815        -35,084        -7,2324
           1816           1816        -34,751       -7,22284
           1817           1817        -34,418       -7,21328
           1818           1818        -34,085       -7,20393
           1819           1819        -33,752       -7,19471
           1820           1820        -33,419       -7,18626
           1821           1821        -33,086        -7,1785
           1822           1822        -32,753       -7,17092
           1823           1823        -32,420       -7,16293
           1824           1824        -32,087       -7,15508
           1825           1825        -31,754       -7,14733
           1826           1826        -31,421       -7,13925
           1827           1827        -31,088       -7,13133
           1828           1828        -30,755       -7,12385
           1829           1829        -30,422       -7,11702
           1830           1830        -30,088       -7,10557
           1831           1831        -29,755       -7,09724
           1832           1832        -29,422       -7,08973
           1833           1833        -29,089       -7,08253
           1834           1834        -28,756       -7,07535
           1835           1835        -28,423       -7,06795
           1836           1836        -28,090       -7,06057
           1837           1837        -27,757       -7,05311
           1838           1838        -27,424       -7,04557
           1839           1839        -27,091       -7,03809
           1840           1840        -26,758       -7,03078
           1841           1841        -26,425       -7,02351
           1842           1842        -26,092       -7,01658
           1843           1843        -25,759       -7,00965
           1844           1844        -25,426       -7,00284
           1845           1845        -25,093        -6,9962
           1846           1846        -24,760       -6,98992
           1847           1847        -24,426       -6,98348
           1848           1848        -24,093       -6,97749
           1849           1849        -23,760       -6,97249
           1850           1850        -23,427       -6,96808
           1851           1851        -23,094       -6,96033
           1852           1852        -22,761       -6,95258
           1853           1853        -22,428       -6,94677
           1854           1854        -22,095       -6,94078
           1855           1855        -21,762        -6,9345
           1856           1856        -21,429       -6,92836
           1857           1857        -21,096       -6,92161
           1858           1858        -20,763       -6,91358
           1859           1859        -20,430       -6,90946
           1860           1860        -20,097       -6,90492
           1861           1861        -19,764        -6,8996
           1862           1862        -19,431       -6,89419
           1863           1863        -19,098       -6,88804
           1864           1864        -18,765       -6,88231
           1865           1865        -18,432       -6,87657
           1866           1866        -18,099       -6,87091
           1867           1867        -17,766       -6,86529
           1868           1868        -17,433       -6,85982
           1869           1869        -17,100       -6,85437
           1870           1870        -16,767       -6,84898
           1871           1871        -16,433        -6,8439
           1872           1872        -16,100       -6,83873
           1873           1873        -15,767        -6,8334
           1874           1874        -15,434         -6,828
           1875           1875        -15,101       -6,82278
           1876           1876        -14,768       -6,81747
           1877           1877        -14,435        -6,8118
           1878           1878        -14,102       -6,80552
           1879           1879        -13,769       -6,80427
           1880           1880        -13,436       -6,80005
           1881           1881        -13,103       -6,79486
           1882           1882        -12,770       -6,78955
           1883           1883        -12,437       -6,78414
           1884           1884        -12,104       -6,77888
           1885           1885        -11,771       -6,77362
           1886           1886        -11,438       -6,76844
           1887           1887        -11,105       -6,76427
           1888           1888        -10,772       -6,75965
           1889           1889        -10,439       -6,75488
           1890           1890        -10,106       -6,74972
           1891           1891         -9,773       -6,74677
           1892           1892         -9,440       -6,74327
           1893           1893         -9,107       -6,73925
           1894           1894         -8,774       -6,73437
           1895           1895         -8,441       -6,72933
           1896           1896         -8,108       -6,72459
           1897           1897         -7,775       -6,71994
           1898           1898         -7,442       -6,71565
           1899           1899         -7,109       -6,71252
           1900           1900         -6,776       -6,70881
           1901           1901         -6,443       -6,70497
           1902           1902         -6,110       -6,70121
           1903           1903         -5,777       -6,69731
           1904           1904         -5,444       -6,69341
           1905           1905         -5,111       -6,68954
           1906           1906         -4,777       -6,68565
           1907           1907         -4,444       -6,68148
           1908           1908         -4,111       -6,67746
           1909           1909         -3,778       -6,67336
           1910           1910         -3,445       -6,66907
           1911           1911         -3,112       -6,66477
           1912           1912         -2,779        -6,6605
           1913           1913         -2,446       -6,65626
           1914           1914         -2,113         -6,652
           1915           1915         -1,780       -6,64831
           1916           1916         -1,447       -6,64439
           1917           1917         -1,114       -6,64073
           1918           1918         -0,781       -6,63758
           1919           1919         -0,448       -6,63505
           1920           1920         -0,115        -6,6321
           1921           1921          0,218       -6,62934
           1922           1922          0,551       -6,62586
           1923           1923          0,884       -6,62239
           1924           1924          1,217       -6,61944
           1925           1925          1,550       -6,61739
           1926           1926          1,883       -6,61509
           1927           1927          2,216       -6,61251
           1928           1928          2,549        -6,6099
           1929           1929          2,882       -6,60718
           1930           1930          3,215       -6,60438
           1931           1931          3,548       -6,60134
           1932           1932          3,881       -6,59843
           1933           1933          4,214       -6,59572
           1934           1934          4,547       -6,59308
           1935           1935          4,880       -6,59046
           1936           1936          5,213       -6,58773
           1937           1937          5,546       -6,58508
           1938           1938          5,879       -6,58248
           1939           1939          6,212       -6,58014
           1940           1940          6,545       -6,57785
           1941           1941          6,878        -6,5756
           1942           1942          7,211       -6,57343
           1943           1943          7,544       -6,57156
           1944           1944          7,877       -6,56948
           1945           1945          8,210       -6,56747
           1946           1946          8,543       -6,56552
           1947           1947          8,876       -6,56338
           1948           1948          9,209       -6,56121
           1949           1949          9,542       -6,55912
           1950           1950          9,875       -6,55708
           1951           1951         10,208       -6,55484
           1952           1952         10,541       -6,55268
           1953           1953         10,874       -6,55053
           1954           1954         11,207       -6,54838
           1955           1955         11,540       -6,54628
           1956           1956         11,873       -6,54416
           1957           1957         12,206       -6,54202
           1958           1958         12,539        -6,5398
           1959           1959         12,872       -6,53775
           1960           1960         13,205       -6,53577
           1961           1961         13,538       -6,53386
           1962           1962         13,871       -6,53203
           1963           1963         14,204       -6,53036
           1964           1964         14,537       -6,52906
           1965           1965         14,870       -6,52781
           1966           1966         15,203       -6,52663
           1967           1967         15,536       -6,52557
           1968           1968         15,869       -6,52492
           1969           1969         16,202       -6,52402
           1970           1970         16,535       -6,52316
           1971           1971         16,868        -6,5224
           1972           1972         17,201       -6,52187
           1973           1973         17,534       -6,52129
           1974           1974         17,867       -6,52065
           1975           1975         18,200       -6,51997
           1976           1976         18,533        -6,5194
           1977           1977         18,866       -6,51876
           1978           1978         19,199       -6,51809
           1979           1979         19,532        -6,5174
           1980           1980         19,865       -6,51666
           1981           1981         20,198       -6,51595
           1982           1982         20,531       -6,51528
           1983           1983         20,864       -6,51472
           1984           1984         21,197       -6,51425
           1985           1985         21,530       -6,51382
           1986           1986         21,863       -6,51349
           1987           1987         22,196       -6,51333
           1988           1988         22,529       -6,51339
           1989           1989         22,862       -6,51338
           1990           1990         23,195       -6,51331
           1991           1991         23,528        -6,5132
           1992           1992         23,861       -6,51341
           1993           1993         24,194       -6,51361
           1994           1994         24,527       -6,51377
           1995           1995         24,860       -6,51398
           1996           1996         25,193       -6,51443
           1997           1997         25,526       -6,51481
           1998           1998         25,859       -6,51516
           1999           1999         26,191       -6,51551
           2000           2000         26,524       -6,51602
           2001           2001         26,857       -6,51647
           2002           2002         27,190       -6,51698
           2003           2003         27,523       -6,51753
           2004           2004         27,856       -6,51818
           2005           2005         28,189       -6,51887
           2006           2006         28,522        -6,5196
           2007           2007         28,855       -6,52031
           2008           2008         29,188       -6,52114
           2009           2009         29,521       -6,52187
           2010           2010         29,854       -6,52257
           2011           2011         30,187       -6,52321
           2012           2012         30,520        -6,5238
           2013           2013         30,853       -6,52465
           2014           2014         31,186       -6,52556
           2015           2015         31,519        -6,5264
           2016           2016         31,852       -6,52733
           2017           2017         32,185       -6,52815
           2018           2018         32,518       -6,52909
           2019           2019         32,851       -6,53017
           2020           2020         33,183       -6,53119
           2021           2021         33,516       -6,53223
           2022           2022         33,849       -6,53328
           2023           2023         34,182       -6,53433
           2024           2024         34,515       -6,53553
           2025           2025         34,848       -6,53657
           2026           2026         35,181       -6,53763
           2027           2027         35,514       -6,53872
           2028           2028         35,847       -6,53959
           2029           2029         36,180        -6,5407
           2030           2030         36,513       -6,54189
           2031           2031         36,846       -6,54312
           2032           2032         37,179       -6,54466
           2033           2033         37,512       -6,54625
           2034           2034         37,845       -6,54789
           2035           2035         38,178       -6,54952
           2036           2036         38,511       -6,55164
           2037           2037         38,843       -6,55359
           2038           2038         39,176       -6,55546
           2039           2039         39,509       -6,55732
           2040           2040         39,842       -6,55937
           2041           2041         40,175       -6,56135
           2042           2042         40,508       -6,56335
           2043           2043         40,841       -6,56536
           2044           2044         41,174       -6,56746
           2045           2045         41,507       -6,56971
           2046           2046         41,840       -6,57209
           2047           2047         42,173       -6,57456
           2048           2048         42,505       -6,57725
           2049           2049         42,838        -6,5799
           2050           2050         43,171       -6,58264
           2051           2051         43,504       -6,58546
           2052           2052         43,837       -6,58856
           2053           2053         44,170        -6,5917
           2054           2054         44,503       -6,59497
           2055           2055         44,836       -6,59833
           2056           2056         45,169       -6,60223
           2057           2057         45,501       -6,60599
           2058           2058         45,834       -6,60981
           2059           2059         46,167        -6,6137
           2060           2060         46,500        -6,6182
           2061           2061         46,833       -6,62262
           2062           2062         47,166       -6,62694
           2063           2063         47,499        -6,6313
           2064           2064         47,831       -6,63751
           2065           2065         48,164       -6,64311
           2066           2066         48,497       -6,64881
           2067           2067         48,830       -6,65517
           2068           2068         49,163       -6,66159
           2069           2069         49,495        -6,6681
           2070           2070         49,828        -6,6753
           2071           2071         50,161       -6,68317
           2072           2072         50,494       -6,69172
           2073           2073         50,826       -6,70024
           2074           2074         51,159       -6,70905
           2075           2075         51,492       -6,71857
           2076           2076         51,825       -6,72946
           2077           2077         52,157       -6,74072
           2078           2078         52,490       -6,75266
           2079           2079         52,823       -6,76491
           2080           2080         53,155       -6,77949
           2081           2081         53,488       -6,79501
           2082           2082         53,820       -6,81194
           2083           2083         54,153       -6,82998
           2084           2084         54,485       -6,85008
           2085           2085         54,817       -6,87177
           2086           2086         55,150       -6,89707
           2087           2087         55,482       -6,92375
           2088           2088         55,814       -6,95402
           2089           2089         56,146        -6,9865
           2090           2090         56,478       -7,02385
           2091           2091         56,810       -7,06462
           2092           2092         57,142       -7,11021
           2093           2093         57,473       -7,16185
           2094           2094         57,805        -7,2184
           2095           2095         58,136        -7,2765
           2096           2096         58,467        -7,3442
           2097           2097         58,798       -7,41806
           2098           2098         59,129        -7,4987
           2099           2099         59,459       -7,58493
           2100           2100         59,789       -7,68139
           2101           2101         60,120       -7,78245
           2102           2102         60,450       -7,88897
           2103           2103         60,779       -7,99734
           2104           2104         61,109       -8,10648
           2105           2105         61,439       -8,21534
           2106           2106         61,769       -8,32152
           2107           2107         62,099       -8,42291
           2108           2108         62,429       -8,50869
           2109           2109         62,760       -8,58473
           2110           2110         63,091       -8,64847
           2111           2111         63,423        -8,7031
           2112           2112         63,755       -8,73456
           2113           2113         64,087       -8,75636
           2114           2114         64,419       -8,76832
           2115           2115         64,752       -8,77404
           2116           2116         65,085       -8,76847
           2117           2117         65,418       -8,75776
           2118           2118         65,751       -8,74403
           2119           2119         66,084       -8,72863
           2120           2120         66,418       -8,70993
           2121           2121         66,751        -8,6907
           2122           2122         67,085       -8,67142
           2123           2123         67,418       -8,65189
           2124           2124         67,751       -8,63463
           2125           2125         68,085        -8,6188
           2126           2126         68,418       -8,60456
           2127           2127         68,751       -8,59122
           2128           2128         69,084        -8,5803
           2129           2129         69,417       -8,57086
           2130           2130         69,750         -8,563
           2131           2131         70,084       -8,55563
           2132           2132         70,417       -8,54977
           2133           2133         70,750       -8,54421
           2134           2134         71,083       -8,53954
           2135           2135         71,415        -8,5357
           2136           2136         71,748       -8,53251
           2137           2137         72,081       -8,52903
           2138           2138         72,414       -8,52568
           2139           2139         72,747       -8,52245
           2140           2140         73,080       -8,51985
           2141           2141         73,413       -8,51721
           2142           2142         73,746       -8,51471
           2143           2143         74,079       -8,51233
           2144           2144         74,412       -8,51064
           2145           2145         74,745       -8,50874
           2146           2146         75,078       -8,50725
           2147           2147         75,411       -8,50604
           2148           2148         75,743        -8,5051
           2149           2149         76,076       -8,50404
           2150           2150         76,409       -8,50304
           2151           2151         76,742       -8,50214
           2152           2152         77,075       -8,50158
           2153           2153         77,408       -8,50098
           2154           2154         77,741       -8,50036
           2155           2155         78,074       -8,49971
           2156           2156         78,406       -8,49929
           2157           2157         78,739       -8,49872
           2158           2158         79,072       -8,49813
           2159           2159         79,405       -8,49758
           2160           2160         79,738       -8,49698
           2161           2161         80,071       -8,49637
           2162           2162         80,404       -8,49574
           2163           2163         80,737       -8,49512
           2164           2164         81,069       -8,49455
           2165           2165         81,402       -8,49386
           2166           2166         81,735       -8,49312
           2167           2167         82,068       -8,49241
           2168           2168         82,401       -8,49147
           2169           2169         82,734       -8,49052
           2170           2170         83,067       -8,48949
           2171           2171         83,400       -8,48833
           2172           2172         83,732       -8,48688
           2173           2173         84,065       -8,48547
           2174           2174         84,398       -8,48406
           2175           2175         84,731       -8,48264
           2176           2176         85,064       -8,48096
           2177           2177         85,397       -8,47942
           2178           2178         85,730       -8,47791
           2179           2179         86,063        -8,4764
           2180           2180         86,396       -8,47498
           2181           2181         86,729       -8,47352
           2182           2182         87,062       -8,47209
           2183           2183         87,394       -8,47074
           2184           2184         87,727       -8,47114
           2185           2185         88,060       -8,47362
           2186           2186         88,393       -8,47723
           2187           2187         88,726       -8,47703
           2188           2188         89,059       -8,47367
           2189           2189         89,392       -8,47065
           2190           2190         89,725       -8,46804
           2191           2191         90,058       -8,46656
           2192           2192         90,390       -8,46547
           2193           2193         90,723       -8,46419
           2194           2194         91,056       -8,46309
           2195           2195         91,389       -8,46211
           2196           2196         91,722       -8,46155
           2197           2197         92,055       -8,46075
           2198           2198         92,388       -8,45994
           2199           2199         92,721       -8,45915
           2200           2200         93,054        -8,4586
           2201           2201         93,386       -8,45809
           2202           2202         93,719       -8,45766
           2203           2203         94,052       -8,45756
           2204           2204         94,385       -8,45789
           2205           2205         94,718       -8,45828
           2206           2206         95,051       -8,45853
           2207           2207         95,384       -8,45819
           2208           2208         95,717        -8,4556
           2209           2209         96,050       -8,45379
           2210           2210         96,382       -8,45202
           2211           2211         96,715       -8,45064
           2212           2212         97,048       -8,45429
           2213           2213         97,381       -8,45284
           2214           2214         97,714       -8,44917
           2215           2215         98,047        -8,4443
           2216           2216         98,380       -8,43964
           2217           2217         98,713       -8,43536
           2218           2218         99,046       -8,43099
           2219           2219         99,379       -8,42656
           2220           2220         99,712       -8,42213
           2221           2221        100,045       -8,41761
           2222           2222        100,378       -8,41293
           2223           2223        100,711       -8,40812
           2224           2224        101,044       -8,40289
           2225           2225        101,377       -8,39767
           2226           2226        101,711       -8,39233
           2227           2227        102,044       -8,38691
           2228           2228        102,377       -8,38092
           2229           2229        102,710       -8,37501
           2230           2230        103,043       -8,36901
           2231           2231        103,376       -8,36308
           2232           2232        103,709       -8,35653
           2233           2233        104,042       -8,34942
           2234           2234        104,375       -8,34174
           2235           2235        104,709       -8,33404
           2236           2236        105,042       -8,32539
           2237           2237        105,375       -8,31685
           2238           2238        105,708       -8,30765
           2239           2239        106,041       -8,29805
           2240           2240        106,375       -8,28711
           2241           2241        106,708       -8,27604
           2242           2242        107,041       -8,26441
           2243           2243        107,374       -8,25232
           2244           2244        107,708       -8,23904
           2245           2245        108,041        -8,2254
           2246           2246        108,375       -8,21106
           2247           2247        108,708       -8,19616
           2248           2248        109,042       -8,18024
           2249           2249        109,375       -8,16322
           2250           2250        109,709       -8,14495
           2251           2251        110,042       -8,12634
           2252           2252        110,376       -8,10653
           2253           2253        110,709       -8,08559
           2254           2254        111,043        -8,0634
           2255           2255        111,377       -8,04093
           2256           2256        111,711       -8,01698
           2257           2257        112,044       -7,99276
           2258           2258        112,378       -7,96783
           2259           2259        112,712       -7,94231
           2260           2260        113,046       -7,91554
           2261           2261        113,380       -7,88771
           2262           2262        113,714       -7,85929
           2263           2263        114,048       -7,83015
           2264           2264        114,382       -7,80033
           2265           2265        114,716       -7,77048
           2266           2266        115,050       -7,73986
           2267           2267        115,384       -7,70911
           2268           2268        115,718       -7,67727
           2269           2269        116,052       -7,64541
           2270           2270        116,386       -7,61352
           2271           2271        116,720       -7,58152
           2272           2272        117,054       -7,54894
           2273           2273        117,389       -7,51664
           2274           2274        117,723       -7,48449
           2275           2275        118,057       -7,45242
           2276           2276        118,391       -7,42034
           2277           2277        118,725        -7,3883
           2278           2278        119,059       -7,35704
           2279           2279        119,393       -7,32586
           2280           2280        119,727       -7,29544
           2281           2281        120,061       -7,26546
           2282           2282        120,396       -7,23599
           2283           2283        120,730       -7,20674
           2284           2284        121,064       -7,18005
           2285           2285        121,398       -7,15343
           2286           2286        121,731       -7,12744
           2287           2287        122,065       -7,10162
           2288           2288        122,399       -7,07872
           2289           2289        122,733       -7,05683
           2290           2290        123,067       -7,03547
           2291           2291        123,401       -7,01442
           2292           2292        123,734       -6,99623
           2293           2293        124,068       -6,97941
           2294           2294        124,401       -6,96415
           2295           2295        124,735       -6,94993
           2296           2296        125,068       -6,93785
           2297           2297        125,402       -6,92678
           2298           2298        125,735       -6,91728
           2299           2299        126,068       -6,90881
           2300           2300        126,402       -6,90294
           2301           2301        126,735       -6,89821
           2302           2302        127,068       -6,89507
           2303           2303        127,401       -6,89293
           2304           2304        127,734       -6,89343
           2305           2305        128,067       -6,89532
           2306           2306        128,400       -6,89892
           2307           2307        128,732       -6,90369
           2308           2308        129,065       -6,91119
           2309           2309        129,398       -6,91986
           2310           2310        129,730       -6,93013
           2311           2311        130,063       -6,94139
           2312           2312        130,395       -6,95473
           2313           2313        130,728       -6,96914
           2314           2314        131,060       -6,98488
           2315           2315        131,392       -7,00162
           2316           2316        131,725        -7,0209
           2317           2317        132,057       -7,04105
           2318           2318        132,389       -7,06247
           2319           2319        132,721       -7,08467
           2320           2320        133,053       -7,10923
           2321           2321        133,385       -7,13459
           2322           2322        133,717       -7,16045
           2323           2323        134,049       -7,18745
           2324           2324        134,381        -7,2156
           2325           2325        134,713       -7,24407
           2326           2326        135,044       -7,27322
           2327           2327        135,376       -7,30295
           2328           2328        135,708       -7,33399
           2329           2329        136,040       -7,36591
           2330           2330        136,371        -7,3977
           2331           2331        136,703       -7,42922
           2332           2332        137,035       -7,46089
           2333           2333        137,366       -7,49273
           2334           2334        137,698       -7,52469
           2335           2335        138,030       -7,55671
           2336           2336        138,361       -7,58912
           2337           2337        138,693       -7,62154
           2338           2338        139,025       -7,65406
           2339           2339        139,356       -7,68668
           2340           2340        139,688       -7,71997
           2341           2341        140,019       -7,75311
           2342           2342        140,351       -7,78628
           2343           2343        140,683       -7,81975
           2344           2344        141,014       -7,85406
           2345           2345        141,346       -7,88826
           2346           2346        141,677       -7,92272
           2347           2347        142,009       -7,95783
           2348           2348        142,340       -7,99376
           2349           2349        142,672       -8,03071
           2350           2350        143,003       -8,06899
           2351           2351        143,334       -8,10819
           2352           2352        143,665       -8,15055
           2353           2353        143,997       -8,19514
           2354           2354        144,327       -8,24479
           2355           2355        144,658       -8,29796
           2356           2356        144,988       -8,36316
           2357           2357        145,318       -8,43737
           2358           2358        145,647       -8,52617
           2359           2359        145,976       -8,62702
           2360           2360        146,304       -8,76101
           2361           2361        146,630       -8,91309
           2362           2362        146,956       -9,08671
           2363           2363        147,281       -9,27507
           2364           2364        147,605       -9,49428
           2365           2365        147,928       -9,72402
           2366           2366        148,251       -9,96213
           2367           2367        148,574       -10,2026
           2368           2368        148,896       -10,4439
           2369           2369        149,219       -10,6798
           2370           2370        149,543       -10,9066
           2371           2371        149,866       -11,1256
           2372           2372        150,191       -11,3225
           2373           2373        150,516       -11,5062
           2374           2374        150,841       -11,6731
           2375           2375        151,168       -11,8285
           2376           2376        151,495       -11,9548
           2377           2377        151,823       -12,0628
           2378           2378        152,152       -12,1461
           2379           2379        152,482         -12,21
           2380           2380        152,815       -12,2168
           2381           2381        153,149       -12,1906
           2382           2382        153,484       -12,1271
           2383           2383        153,821         -12,04
           2384           2384        154,159       -11,9063
           2385           2385        154,498       -11,7542
           2386           2386        154,838       -11,5822
           2387           2387        155,179       -11,3979
           2388           2388        155,521       -11,1853
           2389           2389        155,863         -10,96
           2390           2390        156,206       -10,7217
           2391           2391        156,550       -10,4768
           2392           2392        156,893       -10,2319
           2393           2393        157,236       -9,99712
           2394           2394        157,578       -9,77905
           2395           2395        157,920       -9,57479
           2396           2396        158,260       -9,40462
           2397           2397        158,600       -9,25138
           2398           2398        158,938       -9,11763
           2399           2399        159,276        -9,0021
           2400           2400        159,614       -8,89752
           2401           2401        159,950       -8,81645
           2402           2402        160,286       -8,74401
           2403           2403        160,622       -8,68117
           2404           2404        160,957       -8,62449
           2405           2405        161,292       -8,58204
           2406           2406        161,627       -8,54447
           2407           2407        161,961       -8,51096
           2408           2408        162,295       -8,48226
           2409           2409        162,629       -8,45866
           2410           2410        162,963       -8,43864
           2411           2411        163,297       -8,42129
           2412           2412        163,630       -8,40578
           2413           2413        163,964       -8,39384
           2414           2414        164,297       -8,38316
           2415           2415        164,630       -8,37432
           2416           2416        164,964       -8,36677
           2417           2417        165,297       -8,36044
           2418           2418        165,630       -8,35458
           2419           2419        165,963       -8,35072
           2420           2420        166,296       -8,34805
           2421           2421        166,629       -8,35187
           2422           2422        166,962       -8,34951
           2423           2423        167,295       -8,34575
           2424           2424        167,628       -8,34206
           2425           2425        167,961        -8,3386
           2426           2426        168,294       -8,33539
           2427           2427        168,628       -8,33289
           2428           2428        168,961       -8,33043
           2429           2429        169,294       -8,32905
           2430           2430        169,627       -8,32765
           2431           2431        169,960       -8,32623
           2432           2432        170,293       -8,32491
           2433           2433        170,626       -8,32428
           2434           2434        170,959       -8,32358
           2435           2435        171,291       -8,32294
           2436           2436        171,624       -8,32238
           2437           2437        171,957       -8,32223
           2438           2438        172,290       -8,32187
           2439           2439        172,623       -8,32152
           2440           2440        172,956        -8,3212
           2441           2441        173,289       -8,32087
           2442           2442        173,622       -8,32059
           2443           2443        173,955       -8,32033
           2444           2444        174,288       -8,32007
           2445           2445        174,621       -8,31993
           2446           2446        174,954       -8,31977
           2447           2447        175,287       -8,31967
           2448           2448        175,620       -8,31962
           2449           2449        175,953       -8,31967
           2450           2450        176,286        -8,3197
           2451           2451        176,619       -8,31976
           2452           2452        176,952       -8,31987
           2453           2453        177,285       -8,32005
           2454           2454        177,618       -8,32019
           2455           2455        177,950       -8,32031
           2456           2456        178,283       -8,32041
           2457           2457        178,616       -8,32052
           2458           2458        178,949       -8,32066
           2459           2459        179,282       -8,32087
           2460           2460        179,615       -8,32114
           2461           2461        179,948       -8,32145
           2462           2462        180,281       -8,32174
           2463           2463        180,614       -8,32207
           2464           2464        180,947       -8,32243
           2465           2465        181,280       -8,32297
           2466           2466        181,613       -8,32352
           2467           2467        181,946       -8,32413
           2468           2468        182,279        -8,3248
           2469           2469        182,611       -8,32558
           2470           2470        182,944       -8,32623
           2471           2471        183,277       -8,32686
           2472           2472        183,610       -8,32748
           2473           2473        183,943       -8,32804
           2474           2474        184,276       -8,32866
           2475           2475        184,609       -8,32927
           2476           2476        184,942       -8,32987
           2477           2477        185,275       -8,33042
           2478           2478        185,608       -8,33086
           2479           2479        185,941        -8,3312
           2480           2480        186,274       -8,33151
           2481           2481        186,607       -8,33174
           2482           2482        186,940       -8,33205
           2483           2483        187,273       -8,33234
           2484           2484        187,605       -8,33267
           2485           2485        187,938       -8,33317
           2486           2486        188,271       -8,33364
           2487           2487        188,604       -8,33411
           2488           2488        188,937        -8,3346
           2489           2489        189,270       -8,33527
           2490           2490        189,603       -8,33592
           2491           2491        189,936       -8,33657
           2492           2492        190,269       -8,33724
           2493           2493        190,602       -8,33794
           2494           2494        190,935       -8,33858
           2495           2495        191,268       -8,33919
           2496           2496        191,601       -8,33976
           2497           2497        191,933       -8,34034
           2498           2498        192,266       -8,34087
           2499           2499        192,599       -8,34135
           2500           2500        192,932       -8,34184
           2501           2501        193,265       -8,34229
           2502           2502        193,598       -8,34275
           2503           2503        193,931       -8,34323
           2504           2504        194,264       -8,34374
           2505           2505        194,597       -8,34429
           2506           2506        194,930       -8,34482
           2507           2507        195,263       -8,34534
           2508           2508        195,596       -8,34588
           2509           2509        195,929       -8,34645
           2510           2510        196,262       -8,34707
           2511           2511        196,595       -8,34776
           2512           2512        196,927       -8,34853
           2513           2513        197,260       -8,34927
           2514           2514        197,593          -8,35
           2515           2515        197,926       -8,35073
           2516           2516        198,259       -8,35143
           2517           2517        198,592       -8,35209
           2518           2518        198,925       -8,35264
           2519           2519        199,258       -8,35312
           2520           2520        199,591       -8,35353


Results:
  Step	-0,15 Wg^-1
  	-1,53 mW
  Onset	35,31 °C
  Inflect. Pt.	41,46 °C
  Midpoint	35,43 °C
  Angle Midpoint	40,31 °C

  Step	-44,97e-03 Wg^-1
  	-0,47 mW
  Onset	67,25 °C
  Inflect. Pt.	73,41 °C
  Midpoint	71,71 °C
  Angle Midpoint	75,66 °C

  Integral	-284,37 mJ
    normalized	-27,08 Jg^-1
  Onset	143,41 °C
  Peak	153,38 °C

  Extrapol. Peak	135,27 °C
    normalized	-1,02 Wg^-1
  Peak	138,24 °C

  Step	-0,17 Wg^-1
  	-1,80 mW
  Onset	57,02 °C
  Inflect. Pt.	52,21 °C
  Midpoint	50,70 °C
  Angle Midpoint	50,95 °C

  Step	-0,18 Wg^-1
  	-1,91 mW
  Onset	56,72 °C
  Inflect. Pt.	60,78 °C
  Midpoint	59,33 °C
  Angle Midpoint	59,78 °C

  Integral	99,74 mJ
    normalized	9,50 Jg^-1
  Onset	108,20 °C
  Peak	127,40 °C

  Integral	-99,22 mJ
    normalized	-9,45 Jg^-1
  Onset	146,00 °C
  Peak	152,81 °C

Sample:
  Grazia_DSC_Gr30, 10,5000 mg


________________________________________________________________________________
Not signed                                                        STARe SW 16.40