ClaudiaOlga_DSC_GR26-PLAA                                       02.12.2022 14:16
________________________________________________________________________________



Curve Name:
  ClaudiaOlga_DSC_GR26-PLAA, 02.12.2022 14:11:17
  Performed 02.12.2022 14:11:17
Curve Values:
          Index              t             Ts          Value
                           [s]           [°C]           [mW]
              0              0        -79,996       0,789586
              1              1        -79,662       0,852369
              2              2        -79,327        1,20742
              3              3        -78,990        1,78661
              4              4        -78,654        2,23558
              5              5        -78,320         2,3382
              6              6        -77,988        2,06632
              7              7        -77,658        1,58559
              8              8        -77,328       0,886959
              9              9        -76,999       0,200196
             10             10        -76,669      -0,429262
             11             11        -76,339         -1,005
             12             12        -76,009       -1,45333
             13             13        -75,678       -1,84674
             14             14        -75,347       -2,17806
             15             15        -75,015       -2,47062
             16             16        -74,683       -2,69931
             17             17        -74,351        -2,8966
             18             18        -74,019       -3,05766
             19             19        -73,687       -3,19065
             20             20        -73,354       -3,29965
             21             21        -73,022         -3,395
             22             22        -72,689       -3,47816
             23             23        -72,356       -3,55072
             24             24        -72,023        -3,6041
             25             25        -71,691       -3,64828
             26             26        -71,358       -3,68726
             27             27        -71,025       -3,72102
             28             28        -70,692         -3,747
             29             29        -70,359       -3,77053
             30             30        -70,026       -3,78711
             31             31        -69,693       -3,79992
             32             32        -69,360       -3,81508
             33             33        -69,026        -3,8255
             34             34        -68,693       -3,83283
             35             35        -68,360       -3,83585
             36             36        -68,027       -3,83635
             37             37        -67,694       -3,83681
             38             38        -67,361         -3,836
             39             39        -67,028       -3,83466
             40             40        -66,694       -3,83522
             41             41        -66,361       -3,83361
             42             42        -66,028        -3,8299
             43             43        -65,695       -3,82956
             44             44        -65,362       -3,82538
             45             45        -65,028       -3,82116
             46             46        -64,695       -3,81694
             47             47        -64,362       -3,81262
             48             48        -64,029       -3,80839
             49             49        -63,696        -3,8038
             50             50        -63,362       -3,79758
             51             51        -63,029       -3,79447
             52             52        -62,696       -3,78898
             53             53        -62,363       -3,78489
             54             54        -62,030       -3,78037
             55             55        -61,696       -3,77287
             56             56        -61,363       -3,76417
             57             57        -61,030       -3,75824
             58             58        -60,697        -3,7524
             59             59        -60,364       -3,74626
             60             60        -60,030       -3,74029
             61             61        -59,697        -3,7343
             62             62        -59,364       -3,72837
             63             63        -59,031       -3,72257
             64             64        -58,698        -3,7194
             65             65        -58,364       -3,71512
             66             66        -58,031       -3,70751
             67             67        -57,698       -3,70011
             68             68        -57,365       -3,69556
             69             69        -57,032       -3,69048
             70             70        -56,698       -3,68533
             71             71        -56,365       -3,67999
             72             72        -56,032       -3,67479
             73             73        -55,699       -3,66956
             74             74        -55,366       -3,66437
             75             75        -55,032       -3,65925
             76             76        -54,699       -3,65305
             77             77        -54,366       -3,64677
             78             78        -54,033       -3,64017
             79             79        -53,699       -3,63316
             80             80        -53,366       -3,63022
             81             81        -53,033       -3,62609
             82             82        -52,700       -3,62102
             83             83        -52,367       -3,61557
             84             84        -52,033       -3,60679
             85             85        -51,700       -3,60212
             86             86        -51,367       -3,59806
             87             87        -51,034       -3,59401
             88             88        -50,701       -3,59037
             89             89        -50,367       -3,58432
             90             90        -50,034       -3,57783
             91             91        -49,701       -3,57133
             92             92        -49,368       -3,57064
             93             93        -49,035        -3,5672
             94             94        -48,701        -3,5636
             95             95        -48,368        -3,5606
             96             96        -48,035       -3,55806
             97             97        -47,702       -3,55584
             98             98        -47,369       -3,55513
             99             99        -47,036       -3,55585
            100            100        -46,702       -3,55299
            101            101        -46,369       -3,54948
            102            102        -46,036         -3,546
            103            103        -45,703       -3,54437
            104            104        -45,370       -3,54352
            105            105        -45,036       -3,54253
            106            106        -44,703       -3,53914
            107            107        -44,370       -3,53542
            108            108        -44,037       -3,53336
            109            109        -43,704       -3,53338
            110            110        -43,371       -3,53173
            111            111        -43,037       -3,52992
            112            112        -42,704       -3,52951
            113            113        -42,371       -3,52867
            114            114        -42,038       -3,52767
            115            115        -41,705        -3,5264
            116            116        -41,372       -3,52392
            117            117        -41,038       -3,51967
            118            118        -40,705       -3,51431
            119            119        -40,372       -3,50904
            120            120        -40,039       -3,50501
            121            121        -39,705       -3,50066
            122            122        -39,372       -3,49613
            123            123        -39,039       -3,49163
            124            124        -38,706        -3,4879
            125            125        -38,373       -3,48483
            126            126        -38,040        -3,4815
            127            127        -37,706       -3,47734
            128            128        -37,373       -3,47356
            129            129        -37,040       -3,46997
            130            130        -36,707       -3,46664
            131            131        -36,374       -3,46339
            132            132        -36,040       -3,46066
            133            133        -35,707        -3,4582
            134            134        -35,374       -3,45643
            135            135        -35,041       -3,45458
            136            136        -34,708        -3,4516
            137            137        -34,374       -3,44827
            138            138        -34,041       -3,44541
            139            139        -33,708       -3,44251
            140            140        -33,375       -3,43998
            141            141        -33,042       -3,43734
            142            142        -32,708       -3,43464
            143            143        -32,375       -3,43192
            144            144        -32,042       -3,43083
            145            145        -31,709       -3,42915
            146            146        -31,376       -3,42765
            147            147        -31,043       -3,42606
            148            148        -30,709       -3,42218
            149            149        -30,376       -3,41899
            150            150        -30,043       -3,41587
            151            151        -29,710       -3,41339
            152            152        -29,377       -3,41225
            153            153        -29,043       -3,41049
            154            154        -28,710       -3,40863
            155            155        -28,377       -3,40681
            156            156        -28,044       -3,40521
            157            157        -27,711       -3,40349
            158            158        -27,378       -3,40184
            159            159        -27,044       -3,40017
            160            160        -26,711       -3,39878
            161            161        -26,378       -3,39723
            162            162        -26,045       -3,39556
            163            163        -25,712       -3,39387
            164            164        -25,379       -3,39253
            165            165        -25,045       -3,39117
            166            166        -24,712        -3,3898
            167            167        -24,379       -3,38849
            168            168        -24,046       -3,38727
            169            169        -23,713       -3,38592
            170            170        -23,380       -3,38442
            171            171        -23,046       -3,38277
            172            172        -22,713       -3,38098
            173            173        -22,380       -3,37922
            174            174        -22,047       -3,37751
            175            175        -21,714        -3,3758
            176            176        -21,380       -3,37395
            177            177        -21,047       -3,37227
            178            178        -20,714       -3,37072
            179            179        -20,381       -3,36908
            180            180        -20,048       -3,36757
            181            181        -19,715       -3,36637
            182            182        -19,381       -3,36595
            183            183        -19,048       -3,36579
            184            184        -18,715       -3,36321
            185            185        -18,382       -3,36158
            186            186        -18,049       -3,36016
            187            187        -17,716       -3,35877
            188            188        -17,382       -3,35754
            189            189        -17,049       -3,35638
            190            190        -16,716       -3,35534
            191            191        -16,383       -3,35425
            192            192        -16,050       -3,35318
            193            193        -15,717       -3,35201
            194            194        -15,383       -3,35088
            195            195        -15,050       -3,34976
            196            196        -14,717       -3,34793
            197            197        -14,384       -3,34651
            198            198        -14,051       -3,34514
            199            199        -13,718        -3,3438
            200            200        -13,384       -3,34272
            201            201        -13,051       -3,34166
            202            202        -12,718       -3,34069
            203            203        -12,385       -3,33967
            204            204        -12,052       -3,33878
            205            205        -11,719        -3,3378
            206            206        -11,385       -3,33691
            207            207        -11,052       -3,33606
            208            208        -10,719       -3,33528
            209            209        -10,386       -3,33468
            210            210        -10,053       -3,33416
            211            211         -9,720       -3,33355
            212            212         -9,387       -3,33327
            213            213         -9,053       -3,33276
            214            214         -8,720       -3,33222
            215            215         -8,387       -3,33169
            216            216         -8,054       -3,33101
            217            217         -7,721       -3,33033
            218            218         -7,388       -3,32965
            219            219         -7,054       -3,32897
            220            220         -6,721       -3,32825
            221            221         -6,388       -3,32762
            222            222         -6,055        -3,3271
            223            223         -5,722       -3,32673
            224            224         -5,389       -3,32652
            225            225         -5,056       -3,32613
            226            226         -4,722       -3,32605
            227            227         -4,389       -3,32575
            228            228         -4,056       -3,32577
            229            229         -3,723       -3,32564
            230            230         -3,390       -3,32541
            231            231         -3,057       -3,32518
            232            232         -2,724       -3,32493
            233            233         -2,390       -3,32464
            234            234         -2,057       -3,32434
            235            235         -1,724       -3,32408
            236            236         -1,391       -3,32376
            237            237         -1,058       -3,32343
            238            238         -0,725       -3,32317
            239            239         -0,391         -3,323
            240            240    -58,316e-03       -3,32283
            241            241          0,275       -3,32281
            242            242          0,608       -3,32286
            243            243          0,941       -3,32286
            244            244          1,274       -3,32308
            245            245          1,607       -3,32329
            246            246          1,941       -3,32355
            247            247          2,274       -3,32381
            248            248          2,607       -3,32439
            249            249          2,940       -3,32493
            250            250          3,273       -3,32547
            251            251          3,606       -3,32602
            252            252          3,939       -3,32676
            253            253          4,272       -3,32736
            254            254          4,606        -3,3279
            255            255          4,939       -3,32841
            256            256          5,272       -3,32898
            257            257          5,605       -3,32966
            258            258          5,938       -3,33033
            259            259          6,271       -3,33104
            260            260          6,604       -3,33179
            261            261          6,938       -3,33238
            262            262          7,271       -3,33293
            263            263          7,604       -3,33345
            264            264          7,937        -3,3337
            265            265          8,270       -3,33397
            266            266          8,603       -3,33425
            267            267          8,936       -3,33459
            268            268          9,270       -3,33489
            269            269          9,603       -3,33508
            270            270          9,936       -3,33534
            271            271         10,269       -3,33559
            272            272         10,602       -3,33608
            273            273         10,935       -3,33646
            274            274         11,268       -3,33681
            275            275         11,602       -3,33712
            276            276         11,935       -3,33755
            277            277         12,268       -3,33788
            278            278         12,601       -3,33818
            279            279         12,934       -3,33852
            280            280         13,267       -3,33883
            281            281         13,600       -3,33926
            282            282         13,933       -3,33971
            283            283         14,267        -3,3402
            284            284         14,600       -3,34084
            285            285         14,933       -3,34138
            286            286         15,266       -3,34187
            287            287         15,599       -3,34226
            288            288         15,932       -3,34277
            289            289         16,265       -3,34342
            290            290         16,599       -3,34404
            291            291         16,932        -3,3446
            292            292         17,265       -3,34535
            293            293         17,598       -3,34597
            294            294         17,931       -3,34657
            295            295         18,264       -3,34725
            296            296         18,597       -3,34782
            297            297         18,930       -3,34846
            298            298         19,264       -3,34917
            299            299         19,597       -3,34999
            300            300         19,930       -3,35092
            301            301         20,263       -3,35185
            302            302         20,596       -3,35276
            303            303         20,929       -3,35357
            304            304         21,262       -3,35446
            305            305         21,595       -3,35535
            306            306         21,929       -3,35622
            307            307         22,262       -3,35703
            308            308         22,595       -3,35792
            309            309         22,928       -3,35885
            310            310         23,261       -3,35989
            311            311         23,594       -3,36099
            312            312         23,927       -3,36233
            313            313         24,260       -3,36363
            314            314         24,594       -3,36505
            315            315         24,927       -3,36651
            316            316         25,260       -3,36787
            317            317         25,593        -3,3692
            318            318         25,926       -3,37048
            319            319         26,259       -3,37173
            320            320         26,592       -3,37283
            321            321         26,925       -3,37403
            322            322         27,258       -3,37529
            323            323         27,592       -3,37657
            324            324         27,925       -3,37788
            325            325         28,258       -3,37911
            326            326         28,591       -3,38034
            327            327         28,924       -3,38153
            328            328         29,257       -3,38265
            329            329         29,590       -3,38381
            330            330         29,923       -3,38498
            331            331         30,257       -3,38608
            332            332         30,590       -3,38728
            333            333         30,923       -3,38836
            334            334         31,256        -3,3894
            335            335         31,589       -3,39046
            336            336         31,922       -3,39156
            337            337         32,255       -3,39271
            338            338         32,588       -3,39397
            339            339         32,921       -3,39535
            340            340         33,255       -3,39686
            341            341         33,588       -3,39831
            342            342         33,921       -3,39979
            343            343         34,254       -3,40131
            344            344         34,587       -3,40294
            345            345         34,920       -3,40453
            346            346         35,253       -3,40612
            347            347         35,586       -3,40767
            348            348         35,919       -3,40919
            349            349         36,252       -3,41062
            350            350         36,586       -3,41208
            351            351         36,919       -3,41353
            352            352         37,252       -3,41486
            353            353         37,585       -3,41638
            354            354         37,918       -3,41794
            355            355         38,251       -3,41949
            356            356         38,584       -3,42109
            357            357         38,917       -3,42256
            358            358         39,250       -3,42409
            359            359         39,584       -3,42573
            360            360         39,917       -3,42736
            361            361         40,250         -3,429
            362            362         40,583       -3,43067
            363            363         40,916       -3,43242
            364            364         41,249       -3,43437
            365            365         41,582       -3,43615
            366            366         41,915       -3,43788
            367            367         42,248       -3,43963
            368            368         42,581       -3,44135
            369            369         42,915       -3,44304
            370            370         43,248       -3,44478
            371            371         43,581       -3,44654
            372            372         43,914       -3,44847
            373            373         44,247       -3,45041
            374            374         44,580       -3,45239
            375            375         44,913       -3,45439
            376            376         45,246       -3,45674
            377            377         45,579       -3,45889
            378            378         45,912         -3,461
            379            379         46,245       -3,46309
            380            380         46,578       -3,46536
            381            381         46,912       -3,46765
            382            382         47,245       -3,47006
            383            383         47,578       -3,47256
            384            384         47,911       -3,47536
            385            385         48,244       -3,47798
            386            386         48,577       -3,48068
            387            387         48,910       -3,48354
            388            388         49,243       -3,48684
            389            389         49,576       -3,49002
            390            390         49,909       -3,49313
            391            391         50,242       -3,49615
            392            392         50,575       -3,50028
            393            393         50,908       -3,50407
            394            394         51,241        -3,5079
            395            395         51,574        -3,5117
            396            396         51,907       -3,51632
            397            397         52,240        -3,5207
            398            398         52,573       -3,52542
            399            399         52,906       -3,53041
            400            400         53,239       -3,53617
            401            401         53,572       -3,54188
            402            402         53,905       -3,54765
            403            403         54,238       -3,55373
            404            404         54,571       -3,56208
            405            405         54,904       -3,57114
            406            406         55,237       -3,58059
            407            407         55,570       -3,59025
            408            408         55,903       -3,60224
            409            409         56,235       -3,61522
            410            410         56,568       -3,62968
            411            411         56,901       -3,64521
            412            412         57,233       -3,66371
            413            413         57,566       -3,68417
            414            414         57,898       -3,70927
            415            415         58,231       -3,73748
            416            416         58,563       -3,77425
            417            417         58,895       -3,81572
            418            418         59,227       -3,86404
            419            419         59,558       -3,91813
            420            420         59,889       -3,99006
            421            421         60,220        -4,0704
            422            422         60,551       -4,15956
            423            423         60,881       -4,25553
            424            424         61,211       -4,36019
            425            425         61,542       -4,46452
            426            426         61,872       -4,56447
            427            427         62,202       -4,65868
            428            428         62,533       -4,73662
            429            429         62,864       -4,80246
            430            430         63,196       -4,85317
            431            431         63,528       -4,89337
            432            432         63,860       -4,91149
            433            433         64,193       -4,92172
            434            434         64,526       -4,92194
            435            435         64,859       -4,91546
            436            436         65,193       -4,89685
            437            437         65,527       -4,87455
            438            438         65,860       -4,84968
            439            439         66,194       -4,82322
            440            440         66,528       -4,79626
            441            441         66,862       -4,76965
            442            442         67,196       -4,74345
            443            443         67,530       -4,71813
            444            444         67,863       -4,69541
            445            445         68,197       -4,67419
            446            446         68,531       -4,65496
            447            447         68,864       -4,63692
            448            448         69,198       -4,62155
            449            449         69,531       -4,60753
            450            450         69,865       -4,59541
            451            451         70,198       -4,58447
            452            452         70,531       -4,57583
            453            453         70,865       -4,56813
            454            454         71,198        -4,5617
            455            455         71,531       -4,55629
            456            456         71,864        -4,5519
            457            457         72,198       -4,54755
            458            458         72,531       -4,54374
            459            459         72,864       -4,54103
            460            460         73,197       -4,53953
            461            461         73,530       -4,53831
            462            462         73,863       -4,53729
            463            463         74,196        -4,5362
            464            464         74,529       -4,53585
            465            465         74,862       -4,53531
            466            466         75,196       -4,53517
            467            467         75,529       -4,53524
            468            468         75,862       -4,53636
            469            469         76,195       -4,53715
            470            470         76,528       -4,53807
            471            471         76,861       -4,53911
            472            472         77,194       -4,54045
            473            473         77,527       -4,54167
            474            474         77,860       -4,54292
            475            475         78,193       -4,54418
            476            476         78,526       -4,54548
            477            477         78,859       -4,54673
            478            478         79,192       -4,54795
            479            479         79,525       -4,54911
            480            480         79,858       -4,55018
            481            481         80,191        -4,5513
            482            482         80,524       -4,55249
            483            483         80,857       -4,55368
            484            484         81,190        -4,5548
            485            485         81,523        -4,5559
            486            486         81,856       -4,55698
            487            487         82,189       -4,55795
            488            488         82,522       -4,55884
            489            489         82,855       -4,55975
            490            490         83,189       -4,56052
            491            491         83,522       -4,56115
            492            492         83,855       -4,56161
            493            493         84,188       -4,56215
            494            494         84,521       -4,56267
            495            495         84,854       -4,56319
            496            496         85,187       -4,56362
            497            497         85,520       -4,56414
            498            498         85,853       -4,56471
            499            499         86,186       -4,56527
            500            500         86,519       -4,56582
            501            501         86,852       -4,56627
            502            502         87,185       -4,56665
            503            503         87,518       -4,56707
            504            504         87,851       -4,56726
            505            505         88,184       -4,56749
            506            506         88,518       -4,56774
            507            507         88,851       -4,56806
            508            508         89,184       -4,56837
            509            509         89,517       -4,56875
            510            510         89,850       -4,56918
            511            511         90,183       -4,56962
            512            512         90,516       -4,57011
            513            513         90,849       -4,57056
            514            514         91,182         -4,571
            515            515         91,515       -4,57141
            516            516         91,848       -4,57156
            517            517         92,181       -4,57181
            518            518         92,514       -4,57207
            519            519         92,847       -4,57228
            520            520         93,180       -4,57228
            521            521         93,514       -4,57234
            522            522         93,847       -4,57237
            523            523         94,180       -4,57239
            524            524         94,513       -4,57227
            525            525         94,846       -4,57209
            526            526         95,179       -4,57179
            527            527         95,512       -4,57148
            528            528         95,845       -4,57093
            529            529         96,178       -4,57043
            530            530         96,511       -4,56987
            531            531         96,844       -4,56921
            532            532         97,178       -4,56821
            533            533         97,511       -4,56722
            534            534         97,844       -4,56613
            535            535         98,177       -4,56491
            536            536         98,510       -4,56317
            537            537         98,843       -4,56161
            538            538         99,176       -4,56007
            539            539         99,509       -4,55847
            540            540         99,843       -4,55672
            541            541        100,176       -4,55505
            542            542        100,509       -4,55334
            543            543        100,842       -4,55159
            544            544        101,175       -4,54968
            545            545        101,508       -4,54765
            546            546        101,841       -4,54561
            547            547        102,175       -4,54353
            548            548        102,508       -4,54112
            549            549        102,841       -4,53896
            550            550        103,174       -4,53686
            551            551        103,507       -4,53474
            552            552        103,840       -4,53269
            553            553        104,174       -4,53062
            554            554        104,507       -4,52855
            555            555        104,840       -4,52649
            556            556        105,173       -4,52435
            557            557        105,506       -4,52225
            558            558        105,839       -4,52017
            559            559        106,173       -4,51811
            560            560        106,506       -4,51615
            561            561        106,839       -4,51427
            562            562        107,172       -4,51245
            563            563        107,505       -4,51068
            564            564        107,838        -4,5091
            565            565        108,172        -4,5074
            566            566        108,505       -4,50572
            567            567        108,838       -4,50409
            568            568        109,171       -4,50255
            569            569        109,504       -4,50101
            570            570        109,837       -4,49955
            571            571        110,170       -4,49812
            572            572        110,504       -4,49696
            573            573        110,837       -4,49583
            574            574        111,170       -4,49471
            575            575        111,503       -4,49357
            576            576        111,836        -4,4927
            577            577        112,169       -4,49166
            578            578        112,502       -4,49051
            579            579        112,835       -4,48935
            580            580        113,169       -4,48829
            581            581        113,502       -4,48733
            582            582        113,835       -4,48641
            583            583        114,168       -4,48549
            584            584        114,501        -4,4849
            585            585        114,834       -4,48427
            586            586        115,167       -4,48366
            587            587        115,500       -4,48314
            588            588        115,834       -4,48304
            589            589        116,167        -4,4829
            590            590        116,500       -4,48286
            591            591        116,833        -4,4829
            592            592        117,166       -4,48344
            593            593        117,499       -4,48395
            594            594        117,832       -4,48459
            595            595        118,165       -4,48534
            596            596        118,498       -4,48649
            597            597        118,831       -4,48759
            598            598        119,164       -4,48871
            599            599        119,497       -4,48986
            600            600        119,830       -4,49127
            601            601        120,163       -4,49265
            602            602        120,496       -4,49412
            603            603        120,829       -4,49567
            604            604        121,162       -4,49748
            605            605        121,496       -4,49931
            606            606        121,829       -4,50119
            607            607        122,162       -4,50312
            608            608        122,495       -4,50535
            609            609        122,828       -4,50745
            610            610        123,161       -4,50958
            611            611        123,494       -4,51176
            612            612        123,827        -4,5141
            613            613        124,160       -4,51651
            614            614        124,493         -4,519
            615            615        124,826       -4,52156
            616            616        125,159       -4,52444
            617            617        125,492       -4,52722
            618            618        125,825       -4,53004
            619            619        126,158       -4,53296
            620            620        126,491       -4,53597
            621            621        126,824       -4,53899
            622            622        127,157       -4,54213
            623            623        127,489       -4,54534
            624            624        127,822       -4,54891
            625            625        128,155       -4,55243
            626            626        128,488       -4,55635
            627            627        128,821       -4,56053
            628            628        129,154       -4,56583
            629            629        129,487        -4,5711
            630            630        129,820       -4,57676
            631            631        130,153       -4,58274
            632            632        130,486       -4,58941
            633            633        130,818       -4,59653
            634            634        131,151       -4,60426
            635            635        131,484       -4,61208
            636            636        131,817        -4,6205
            637            637        132,150        -4,6288
            638            638        132,482       -4,63725
            639            639        132,815       -4,64512
            640            640        133,148       -4,65064
            641            641        133,481       -4,65512
            642            642        133,814       -4,65813
            643            643        134,147       -4,66004
            644            644        134,480        -4,6592
            645            645        134,813        -4,6574
            646            646        135,146       -4,65456
            647            647        135,480       -4,65134
            648            648        135,813       -4,64876
            649            649        136,146       -4,64623
            650            650        136,479       -4,64357
            651            651        136,812       -4,64099
            652            652        137,146       -4,63947
            653            653        137,479       -4,63881
            654            654        137,812       -4,63938
            655            655        138,145         -4,641
            656            656        138,478       -4,64374
            657            657        138,811       -4,64675
            658            658        139,144       -4,65137
            659            659        139,476       -4,65734
            660            660        139,809       -4,66457
            661            661        140,142       -4,67207
            662            662        140,475       -4,68109
            663            663        140,807       -4,69112
            664            664        141,140       -4,70346
            665            665        141,473       -4,71671
            666            666        141,805       -4,73107
            667            667        142,138        -4,7455
            668            668        142,470       -4,76242
            669            669        142,802       -4,78037
            670            670        143,135       -4,79991
            671            671        143,467       -4,82047
            672            672        143,799       -4,84414
            673            673        144,131       -4,86913
            674            674        144,463       -4,89583
            675            675        144,795       -4,92372
            676            676        145,127       -4,95538
            677            677        145,458       -4,98911
            678            678        145,790       -5,02568
            679            679        146,121       -5,06428
            680            680        146,453       -5,10691
            681            681        146,784       -5,15082
            682            682        147,115       -5,19821
            683            683        147,446       -5,25059
            684            684        147,777       -5,30799
            685            685        148,107       -5,36892
            686            686        148,437       -5,43186
            687            687        148,768       -5,49601
            688            688        149,098       -5,55974
            689            689        149,429       -5,62345
            690            690        149,759       -5,68665
            691            691        150,089       -5,74895
            692            692        150,420       -5,80844
            693            693        150,751       -5,86342
            694            694        151,081        -5,9127
            695            695        151,413       -5,95742
            696            696        151,744       -5,98948
            697            697        152,076        -6,0145
            698            698        152,409       -6,03023
            699            699        152,741       -6,03896
            700            700        153,075       -6,03193
            701            701        153,408       -6,01717
            702            702        153,742       -5,99393
            703            703        154,077       -5,96419
            704            704        154,412       -5,91942
            705            705        154,747        -5,8665
            706            706        155,083       -5,80492
            707            707        155,419       -5,73768
            708            708        155,755       -5,66183
            709            709        156,091       -5,58408
            710            710        156,428       -5,50763
            711            711        156,764       -5,43407
            712            712        157,100       -5,36484
            713            713        157,436       -5,30123
            714            714        157,771       -5,24398
            715            715        158,107       -5,19155
            716            716        158,442       -5,14727
            717            717        158,777       -5,10768
            718            718        159,111       -5,07302
            719            719        159,446       -5,04062
            720            720        159,780       -5,01337
            721            721        160,114       -4,98961
            722            722        160,448       -4,96802
            723            723        160,782       -4,94768
            724            724        161,116       -4,92739
            725            725        161,450       -4,90667
            726            726        161,784       -4,88601
            727            727        162,118       -4,86543
            728            728        162,452       -4,84435
            729            729        162,786       -4,82377
            730            730        163,120       -4,80448
            731            731        163,454       -4,78608
            732            732        163,788          -4,77
            733            733        164,122       -4,75525
            734            734        164,455       -4,74199
            735            735        164,789       -4,72887
            736            736        165,123       -4,71826
            737            737        165,456       -4,70895
            738            738        165,790       -4,70113
            739            739        166,123        -4,6937
            740            740        166,456       -4,68756
            741            741        166,790        -4,6818
            742            742        167,123       -4,67681
            743            743        167,456        -4,6725
            744            744        167,790       -4,66895
            745            745        168,123       -4,66535
            746            746        168,456       -4,66204
            747            747        168,789       -4,65898
            748            748        169,123       -4,65681
            749            749        169,456       -4,65465
            750            750        169,789        -4,6527
            751            751        170,122       -4,65075
            752            752        170,455       -4,64942
            753            753        170,789       -4,64798
            754            754        171,122        -4,6466
            755            755        171,455       -4,64526
            756            756        171,788       -4,64441
            757            757        172,121       -4,64349
            758            758        172,454       -4,64269
            759            759        172,788       -4,64198
            760            760        173,121       -4,64162
            761            761        173,454       -4,64124
            762            762        173,787       -4,64089
            763            763        174,120       -4,64055
            764            764        174,453       -4,64044
            765            765        174,786       -4,64012
            766            766        175,119       -4,63974
            767            767        175,453       -4,63936
            768            768        175,786       -4,63897
            769            769        176,119       -4,63873
            770            770        176,452        -4,6386
            771            771        176,785       -4,63847
            772            772        177,118       -4,63861
            773            773        177,451       -4,63873
            774            774        177,784       -4,63896
            775            775        178,118       -4,63925
            776            776        178,451       -4,63977
            777            777        178,784       -4,64024
            778            778        179,117       -4,64076
            779            779        179,450       -4,64128
            780            780        179,783       -4,64203
            781            781        180,116       -4,64272
            782            782        180,449       -4,64336
            783            783        180,782       -4,64398
            784            784        181,115       -4,64462
            785            785        181,448       -4,64521
            786            786        181,781       -4,64579
            787            787        182,115       -4,64639
            788            788        182,448       -4,64684
            789            789        182,781       -4,64728
            790            790        183,114        -4,6477
            791            791        183,447       -4,64813
            792            792        183,780       -4,64848
            793            793        184,113       -4,64889
            794            794        184,446       -4,64933
            795            795        184,779       -4,64976
            796            796        185,112        -4,6502
            797            797        185,446       -4,65054
            798            798        185,779       -4,65083
            799            799        186,112       -4,65111
            800            800        186,445        -4,6514
            801            801        186,778       -4,65166
            802            802        187,111       -4,65192
            803            803        187,444       -4,65218
            804            804        187,777       -4,65261
            805            805        188,110       -4,65298
            806            806        188,443       -4,65335
            807            807        188,777       -4,65374
            808            808        189,110       -4,65426
            809            809        189,443       -4,65473
            810            810        189,776       -4,65515
            811            811        190,109       -4,65554
            812            812        190,442       -4,65589
            813            813        190,775       -4,65619
            814            814        191,108       -4,65646
            815            815        191,441        -4,6567
            816            816        191,775       -4,65684
            817            817        192,108       -4,65703
            818            818        192,441       -4,65723
            819            819        192,774       -4,65745
            820            820        193,107       -4,65776
            821            821        193,440       -4,65805
            822            822        193,773       -4,65832
            823            823        194,106        -4,6586
            824            824        194,439       -4,65905
            825            825        194,772       -4,65952
            826            826        195,106       -4,66003
            827            827        195,439       -4,66057
            828            828        195,772       -4,66126
            829            829        196,105       -4,66189
            830            830        196,438       -4,66253
            831            831        196,771       -4,66317
            832            832        197,104        -4,6637
            833            833        197,437       -4,66402
            834            834        197,770       -4,66437
            835            835        198,103       -4,66477
            836            836        198,437       -4,66432
            837            837        198,770       -4,66388
            838            838        199,101       -4,70732
            839            839        199,427       -4,83586
            840            840        199,743       -5,19793
            841            841        199,396       -5,46806
            842            842        199,060       -5,52374
            843            843        198,734       -5,38147
            844            844        198,431       -4,78677
            845            845        198,134       -4,05061
            846            846        197,841       -3,21919
            847            847        197,551       -2,35477
            848            848        197,259       -1,51317
            849            849        196,965      -0,720129
            850            850        196,667      0,0078429
            851            851        196,367       0,688115
            852            852        196,061         1,2532
            853            853        195,753        1,76376
            854            854        195,442        2,21465
            855            855        195,128        2,62749
            856            856        194,811         2,9589
            857            857        194,492        3,25519
            858            858        194,171         3,5144
            859            859        193,849        3,74967
            860            860        193,525          3,936
            861            861        193,199        4,10172
            862            862        192,873        4,24574
            863            863        192,545        4,37616
            864            864        192,217        4,47928
            865            865        191,888        4,57105
            866            866        191,558        4,65066
            867            867        191,228        4,72244
            868            868        190,897        4,77976
            869            869        190,566        4,83001
            870            870        190,235        4,87373
            871            871        189,903        4,91318
            872            872        189,571        4,94385
            873            873        189,239        4,97063
            874            874        188,906         4,9944
            875            875        188,574        5,01591
            876            876        188,241        5,03232
            877            877        187,908        5,04683
            878            878        187,575        5,05908
            879            879        187,242        5,06987
            880            880        186,909          5,078
            881            881        186,576        5,08504
            882            882        186,242        5,09083
            883            883        185,909         5,0963
            884            884        185,576        5,10056
            885            885        185,242        5,10385
            886            886        184,909        5,10653
            887            887        184,575        5,10844
            888            888        184,242        5,10965
            889            889        183,908        5,11082
            890            890        183,575        5,11164
            891            891        183,241        5,11209
            892            892        182,908        5,11201
            893            893        182,574        5,11204
            894            894        182,240        5,11197
            895            895        181,907        5,11178
            896            896        181,573        5,11096
            897            897        181,240        5,11026
            898            898        180,906        5,10951
            899            899        180,572        5,10871
            900            900        180,239         5,1075
            901            901        179,905        5,10626
            902            902        179,572        5,10484
            903            903        179,238        5,10332
            904            904        178,904        5,10133
            905            905        178,571        5,09941
            906            906        178,237         5,0974
            907            907        177,903        5,09527
            908            908        177,570         5,0927
            909            909        177,236         5,0903
            910            910        176,902          5,088
            911            911        176,568        5,08578
            912            912        176,235        5,08354
            913            913        175,901         5,0815
            914            914        175,567        5,07947
            915            915        175,234        5,07734
            916            916        174,900        5,07556
            917            917        174,566        5,07373
            918            918        174,233        5,07127
            919            919        173,899        5,06734
            920            920        173,565        5,06221
            921            921        173,231        5,05726
            922            922        172,898        5,05239
            923            923        172,564        5,04754
            924            924        172,230        5,04206
            925            925        171,896        5,03621
            926            926        171,562        5,02875
            927            927        171,228        5,02002
            928            928        170,894         5,0099
            929            929        170,560         4,9995
            930            930        170,226        4,98845
            931            931        169,892        4,97688
            932            932        169,558        4,96549
            933            933        169,224        4,95418
            934            934        168,890        4,94312
            935            935        168,556        4,93263
            936            936        168,222        4,92392
            937            937        167,888        4,91539
            938            938        167,554        4,90767
            939            939        167,220         4,9012
            940            940        166,886        4,89744
            941            941        166,553        4,89383
            942            942        166,219        4,89087
            943            943        165,885        4,88815
            944            944        165,552          4,888
            945            945        165,218        4,88866
            946            946        164,885        4,88977
            947            947        164,551        4,89134
            948            948        164,218        4,89409
            949            949        163,884        4,89711
            950            950        163,551        4,90089
            951            951        163,217        4,90537
            952            952        162,884        4,91063
            953            953        162,551        4,91589
            954            954        162,217        4,92108
            955            955        161,884         4,9263
            956            956        161,551        4,93174
            957            957        161,217         4,9369
            958            958        160,884        4,94196
            959            959        160,551        4,94711
            960            960        160,217        4,95131
            961            961        159,884        4,95555
            962            962        159,550        4,95949
            963            963        159,217        4,96261
            964            964        158,884        4,96505
            965            965        158,550        4,96759
            966            966        158,217        4,96933
            967            967        157,883        4,97041
            968            968        157,550        4,97082
            969            969        157,216        4,97163
            970            970        156,882        4,97231
            971            971        156,549        4,97286
            972            972        156,215        4,97303
            973            973        155,882        4,97349
            974            974        155,548        4,97322
            975            975        155,215        4,97255
            976            976        154,881        4,97182
            977            977        154,547        4,97138
            978            978        154,214        4,97152
            979            979        153,880        4,97187
            980            980        153,547        4,97469
            981            981        153,213        4,97825
            982            982        152,880        4,98251
            983            983        152,547         4,9869
            984            984        152,213        4,98911
            985            985        151,880        4,99128
            986            986        151,546        4,99325
            987            987        151,213        4,99468
            988            988        150,879        4,99611
            989            989        150,545        4,99737
            990            990        150,212        4,99782
            991            991        149,878        4,99763
            992            992        149,545        4,99602
            993            993        149,211        4,99402
            994            994        148,877        4,99042
            995            995        148,544         4,9862
            996            996        148,210        4,98127
            997            997        147,876        4,97641
            998            998        147,542        4,97166
            999            999        147,208        4,96685
           1000           1000        146,875        4,96185
           1001           1001        146,541        4,95705
           1002           1002        146,207        4,95234
           1003           1003        145,873        4,94755
           1004           1004        145,539        4,94306
           1005           1005        145,206        4,93892
           1006           1006        144,872        4,93607
           1007           1007        144,538        4,93416
           1008           1008        144,205         4,9334
           1009           1009        143,871        4,93221
           1010           1010        143,537         4,9318
           1011           1011        143,204         4,9326
           1012           1012        142,870         4,9348
           1013           1013        142,537         4,9368
           1014           1014        142,203        4,93917
           1015           1015        141,870        4,94183
           1016           1016        141,537        4,94539
           1017           1017        141,203        4,94846
           1018           1018        140,870        4,95138
           1019           1019        140,536        4,95421
           1020           1020        140,203        4,95696
           1021           1021        139,869        4,95977
           1022           1022        139,536        4,96226
           1023           1023        139,202        4,96413
           1024           1024        138,869        4,96475
           1025           1025        138,535        4,96495
           1026           1026        138,201        4,96455
           1027           1027        137,868        4,96396
           1028           1028        137,534        4,96318
           1029           1029        137,201        4,96246
           1030           1030        136,867        4,96155
           1031           1031        136,533        4,96049
           1032           1032        136,200        4,95934
           1033           1033        135,866        4,95799
           1034           1034        135,532        4,95627
           1035           1035        135,199        4,95481
           1036           1036        134,865        4,95327
           1037           1037        134,532        4,95185
           1038           1038        134,198        4,95085
           1039           1039        133,864        4,95021
           1040           1040        133,531        4,94992
           1041           1041        133,197        4,94942
           1042           1042        132,863        4,94882
           1043           1043        132,530        4,94814
           1044           1044        132,196        4,94773
           1045           1045        131,863        4,94707
           1046           1046        131,529        4,94578
           1047           1047        131,195        4,94392
           1048           1048        130,862        4,94129
           1049           1049        130,528        4,93905
           1050           1050        130,194        4,93629
           1051           1051        129,861        4,93312
           1052           1052        129,527         4,9295
           1053           1053        129,193          4,926
           1054           1054        128,859        4,92236
           1055           1055        128,526         4,9186
           1056           1056        128,192        4,91446
           1057           1057        127,858         4,9106
           1058           1058        127,524        4,90681
           1059           1059        127,191        4,90294
           1060           1060        126,857        4,89968
           1061           1061        126,523         4,8965
           1062           1062        126,190        4,89422
           1063           1063        125,856        4,89263
           1064           1064        125,522        4,89175
           1065           1065        125,189        4,89082
           1066           1066        124,855        4,89021
           1067           1067        124,521        4,88981
           1068           1068        124,188        4,89026
           1069           1069        123,854        4,89078
           1070           1070        123,521        4,89147
           1071           1071        123,187        4,89198
           1072           1072        122,854        4,89278
           1073           1073        122,520        4,89324
           1074           1074        122,186         4,8936
           1075           1075        121,853        4,89407
           1076           1076        121,519        4,89375
           1077           1077        121,186        4,89308
           1078           1078        120,852        4,89174
           1079           1079        120,518        4,88976
           1080           1080        120,185        4,88716
           1081           1081        119,851        4,88502
           1082           1082        119,517          4,883
           1083           1083        119,184        4,88103
           1084           1084        118,850         4,8791
           1085           1085        118,516        4,87727
           1086           1086        118,183        4,87547
           1087           1087        117,849        4,87365
           1088           1088        117,515        4,87209
           1089           1089        117,182        4,87032
           1090           1090        116,848        4,86844
           1091           1091        116,514        4,86658
           1092           1092        116,181        4,86461
           1093           1093        115,847        4,86278
           1094           1094        115,513        4,86111
           1095           1095        115,180        4,85954
           1096           1096        114,846        4,85831
           1097           1097        114,512        4,85706
           1098           1098        114,179         4,8559
           1099           1099        113,845        4,85478
           1100           1100        113,512         4,8541
           1101           1101        113,178        4,85328
           1102           1102        112,844        4,85244
           1103           1103        112,511         4,8516
           1104           1104        112,177        4,85104
           1105           1105        111,843        4,85059
           1106           1106        111,510        4,85031
           1107           1107        111,176        4,85011
           1108           1108        110,843        4,85046
           1109           1109        110,509        4,85061
           1110           1110        110,175        4,85069
           1111           1111        109,842        4,85078
           1112           1112        109,508        4,85103
           1113           1113        109,175        4,85103
           1114           1114        108,841        4,85086
           1115           1115        108,507        4,85056
           1116           1116        108,174        4,84981
           1117           1117        107,840        4,84912
           1118           1118        107,507        4,84843
           1119           1119        107,173        4,84773
           1120           1120        106,839         4,8468
           1121           1121        106,506        4,84604
           1122           1122        106,172        4,84536
           1123           1123        105,839        4,84472
           1124           1124        105,505        4,84435
           1125           1125        105,171        4,84405
           1126           1126        104,838        4,84382
           1127           1127        104,504        4,84352
           1128           1128        104,171        4,84419
           1129           1129        103,837        4,84459
           1130           1130        103,503        4,84503
           1131           1131        103,170        4,84557
           1132           1132        102,836        4,84649
           1133           1133        102,503         4,8472
           1134           1134        102,169        4,84792
           1135           1135        101,835        4,84871
           1136           1136        101,502        4,84918
           1137           1137        101,168        4,84852
           1138           1138        100,835        4,84729
           1139           1139        100,501        4,84619
           1140           1140        100,167        4,84512
           1141           1141         99,834        4,84407
           1142           1142         99,500        4,84301
           1143           1143         99,166         4,8419
           1144           1144         98,833        4,84096
           1145           1145         98,499        4,84009
           1146           1146         98,166        4,83931
           1147           1147         97,832        4,83857
           1148           1148         97,498        4,83805
           1149           1149         97,165        4,83747
           1150           1150         96,831        4,83694
           1151           1151         96,497        4,83649
           1152           1152         96,164        4,83628
           1153           1153         95,830        4,83616
           1154           1154         95,497        4,83624
           1155           1155         95,163        4,83647
           1156           1156         94,829        4,83726
           1157           1157         94,496        4,83782
           1158           1158         94,162         4,8383
           1159           1159         93,829        4,83882
           1160           1160         93,495         4,8397
           1161           1161         93,162        4,83996
           1162           1162         92,828         4,8389
           1163           1163         92,494        4,83741
           1164           1164         92,161        4,83649
           1165           1165         91,827        4,83563
           1166           1166         91,493         4,8348
           1167           1167         91,160        4,83404
           1168           1168         90,826        4,83357
           1169           1169         90,493        4,83293
           1170           1170         90,159        4,83225
           1171           1171         89,825        4,83159
           1172           1172         89,492        4,83087
           1173           1173         89,158        4,83017
           1174           1174         88,824        4,82958
           1175           1175         88,491        4,82905
           1176           1176         88,157        4,82855
           1177           1177         87,824        4,82825
           1178           1178         87,490         4,8281
           1179           1179         87,156        4,82801
           1180           1180         86,823         4,8284
           1181           1181         86,489        4,82863
           1182           1182         86,156        4,82887
           1183           1183         85,822        4,82914
           1184           1184         85,488        4,82988
           1185           1185         85,155        4,83058
           1186           1186         84,821        4,83129
           1187           1187         84,488        4,83223
           1188           1188         84,154        4,83415
           1189           1189         83,820        4,83594
           1190           1190         83,487        4,83756
           1191           1191         83,153         4,8392
           1192           1192         82,820        4,84096
           1193           1193         82,486        4,84255
           1194           1194         82,153        4,84281
           1195           1195         81,819        4,84273
           1196           1196         81,485        4,84292
           1197           1197         81,152        4,84314
           1198           1198         80,818        4,84317
           1199           1199         80,485        4,84305
           1200           1200         80,151        4,84303
           1201           1201         79,817        4,84276
           1202           1202         79,484        4,84173
           1203           1203         79,150        4,84016
           1204           1204         78,816        4,83733
           1205           1205         78,483        4,83509
           1206           1206         78,149         4,8328
           1207           1207         77,815        4,83079
           1208           1208         77,482        4,83029
           1209           1209         77,148        4,82959
           1210           1210         76,815        4,82927
           1211           1211         76,481        4,82945
           1212           1212         76,147         4,8297
           1213           1213         75,814        4,83014
           1214           1214         75,480        4,83119
           1215           1215         75,147        4,83236
           1216           1216         74,813        4,83362
           1217           1217         74,479        4,83456
           1218           1218         74,146        4,83534
           1219           1219         73,812         4,8361
           1220           1220         73,479        4,83686
           1221           1221         73,145        4,83724
           1222           1222         72,811         4,8378
           1223           1223         72,478         4,8391
           1224           1224         72,144        4,84163
           1225           1225         71,811        4,84239
           1226           1226         71,477        4,84061
           1227           1227         71,143        4,83918
           1228           1228         70,810        4,83824
           1229           1229         70,476        4,83734
           1230           1230         70,142        4,83635
           1231           1231         69,809        4,83538
           1232           1232         69,475        4,83467
           1233           1233         69,142        4,83375
           1234           1234         68,808        4,83274
           1235           1235         68,474        4,83176
           1236           1236         68,141        4,83067
           1237           1237         67,807        4,82968
           1238           1238         67,473        4,82868
           1239           1239         67,140         4,8277
           1240           1240         66,806        4,82657
           1241           1241         66,472         4,8253
           1242           1242         66,139        4,82394
           1243           1243         65,805        4,82251
           1244           1244         65,471        4,82068
           1245           1245         65,138        4,81911
           1246           1246         64,804        4,81768
           1247           1247         64,470        4,81637
           1248           1248         64,137        4,81505
           1249           1249         63,803        4,81377
           1250           1250         63,470         4,8125
           1251           1251         63,136        4,81126
           1252           1252         62,802        4,81003
           1253           1253         62,469        4,80863
           1254           1254         62,135        4,80729
           1255           1255         61,801        4,80592
           1256           1256         61,468        4,80363
           1257           1257         61,134        4,80003
           1258           1258         60,800        4,79457
           1259           1259         60,466        4,78774
           1260           1260         60,132        4,77793
           1261           1261         59,798        4,76688
           1262           1262         59,465        4,75457
           1263           1263         59,131        4,74174
           1264           1264         58,797         4,7277
           1265           1265         58,463        4,71234
           1266           1266         58,129        4,69508
           1267           1267         57,794        4,67665
           1268           1268         57,460        4,65499
           1269           1269         57,126        4,63262
           1270           1270         56,792         4,6097
           1271           1271         56,458        4,58585
           1272           1272         56,123        4,55949
           1273           1273         55,789        4,53307
           1274           1274         55,455        4,50599
           1275           1275         55,120        4,47843
           1276           1276         54,786        4,44967
           1277           1277         54,452        4,41957
           1278           1278         54,117        4,38842
           1279           1279         53,783        4,35722
           1280           1280         53,448        4,32635
           1281           1281         53,114        4,29542
           1282           1282         52,780        4,26534
           1283           1283         52,445        4,23674
           1284           1284         52,111        4,20946
           1285           1285         51,777        4,18186
           1286           1286         51,442        4,15434
           1287           1287         51,108        4,12706
           1288           1288         50,774        4,10284
           1289           1289         50,440        4,07954
           1290           1290         50,106        4,05674
           1291           1291         49,771        4,03422
           1292           1292         49,437         4,0146
           1293           1293         49,103        3,99565
           1294           1294         48,769         3,9772
           1295           1295         48,435        3,95921
           1296           1296         48,101        3,94213
           1297           1297         47,767        3,92623
           1298           1298         47,433        3,91142
           1299           1299         47,099        3,89688
           1300           1300         46,766        3,88355
           1301           1301         46,432        3,87033
           1302           1302         46,098        3,85748
           1303           1303         45,764        3,84512
           1304           1304         45,430        3,83873
           1305           1305         45,096        3,83089
           1306           1306         44,763        3,81958
           1307           1307         44,429        3,80786
           1308           1308         44,095        3,79834
           1309           1309         43,761        3,78973
           1310           1310         43,427        3,78155
           1311           1311         43,094        3,77384
           1312           1312         42,760        3,76599
           1313           1313         42,426        3,75809
           1314           1314         42,092        3,75031
           1315           1315         41,759        3,74261
           1316           1316         41,425        3,73492
           1317           1317         41,091        3,72735
           1318           1318         40,758        3,72013
           1319           1319         40,424        3,71297
           1320           1320         40,090        3,70676
           1321           1321         39,757        3,70203
           1322           1322         39,423        3,69886
           1323           1323         39,089        3,69611
           1324           1324         38,756        3,69459
           1325           1325         38,422        3,69341
           1326           1326         38,089        3,69334
           1327           1327         37,755        3,69322
           1328           1328         37,422        3,69356
           1329           1329         37,088        3,69422
           1330           1330         36,754        3,69556
           1331           1331         36,421        3,69826
           1332           1332         36,088        3,70337
           1333           1333         35,754         3,7091
           1334           1334         35,421        3,71494
           1335           1335         35,087        3,72104
           1336           1336         34,754        3,72531
           1337           1337         34,420        3,72814
           1338           1338         34,087        3,72919
           1339           1339         33,753        3,72932
           1340           1340         33,420        3,72372
           1341           1341         33,086        3,71726
           1342           1342         32,752        3,70961
           1343           1343         32,419        3,70082
           1344           1344         32,085        3,68961
           1345           1345         31,751        3,67852
           1346           1346         31,417        3,66743
           1347           1347         31,083        3,65647
           1348           1348         30,750        3,64533
           1349           1349         30,416        3,63423
           1350           1350         30,082        3,62343
           1351           1351         29,748        3,61319
           1352           1352         29,414        3,60418
           1353           1353         29,081        3,59608
           1354           1354         28,747        3,58824
           1355           1355         28,413        3,58088
           1356           1356         28,080        3,57747
           1357           1357         27,746        3,57432
           1358           1358         27,413        3,57159
           1359           1359         27,079        3,56912
           1360           1360         26,745        3,56826
           1361           1361         26,412        3,56759
           1362           1362         26,078        3,56739
           1363           1363         25,745        3,56782
           1364           1364         25,411        3,56875
           1365           1365         25,078        3,56971
           1366           1366         24,744        3,57118
           1367           1367         24,411         3,5725
           1368           1368         24,077        3,57373
           1369           1369         23,744        3,57484
           1370           1370         23,410        3,57588
           1371           1371         23,077        3,57661
           1372           1372         22,743        3,57637
           1373           1373         22,410        3,57629
           1374           1374         22,076        3,57602
           1375           1375         21,743        3,57588
           1376           1376         21,409        3,57568
           1377           1377         21,075        3,57544
           1378           1378         20,742        3,57513
           1379           1379         20,408        3,57488
           1380           1380         20,075        3,57496
           1381           1381         19,741        3,57473
           1382           1382         19,408        3,57428
           1383           1383         19,074        3,57473
           1384           1384         18,741        3,57577
           1385           1385         18,407        3,57649
           1386           1386         18,074        3,57724
           1387           1387         17,740        3,57771
           1388           1388         17,407        3,57833
           1389           1389         17,073         3,5803
           1390           1390         16,740        3,58487
           1391           1391         16,406         3,5926
           1392           1392         16,073        3,59099
           1393           1393         15,739        3,58938
           1394           1394         15,406        3,58788
           1395           1395         15,072        3,58653
           1396           1396         14,738        3,58531
           1397           1397         14,405        3,58418
           1398           1398         14,071        3,58307
           1399           1399         13,738        3,58194
           1400           1400         13,404         3,5811
           1401           1401         13,071        3,57998
           1402           1402         12,737        3,57876
           1403           1403         12,404         3,5775
           1404           1404         12,070        3,57628
           1405           1405         11,736        3,57474
           1406           1406         11,403        3,57348
           1407           1407         11,069        3,57312
           1408           1408         10,736        3,57264
           1409           1409         10,402        3,57167
           1410           1410         10,069        3,56974
           1411           1411          9,735        3,56791
           1412           1412          9,402        3,56624
           1413           1413          9,068        3,56467
           1414           1414          8,734        3,56311
           1415           1415          8,401        3,56156
           1416           1416          8,067        3,56045
           1417           1417          7,734        3,55936
           1418           1418          7,400        3,55838
           1419           1419          7,067        3,55744
           1420           1420          6,733        3,55689
           1421           1421          6,400        3,55625
           1422           1422          6,066        3,55558
           1423           1423          5,732        3,55492
           1424           1424          5,399         3,5542
           1425           1425          5,065        3,55358
           1426           1426          4,732        3,55301
           1427           1427          4,398        3,55244
           1428           1428          4,065         3,5519
           1429           1429          3,731        3,55139
           1430           1430          3,398        3,55094
           1431           1431          3,064        3,55065
           1432           1432          2,731        3,55064
           1433           1433          2,397        3,55152
           1434           1434          2,064        3,55255
           1435           1435          1,730        3,55396
           1436           1436          1,396        3,55334
           1437           1437          1,063        3,55275
           1438           1438          0,729        3,55205
           1439           1439          0,396        3,55124
           1440           1440     62,311e-03        3,55047
           1441           1441         -0,271        3,54972
           1442           1442         -0,605        3,54895
           1443           1443         -0,938        3,54821
           1444           1444         -1,272        3,54792
           1445           1445         -1,605        3,54759
           1446           1446         -1,939        3,54714
           1447           1447         -2,272        3,54652
           1448           1448         -2,606        3,54741
           1449           1449         -2,940        3,54773
           1450           1450         -3,273        3,54791
           1451           1451         -3,607        3,54807
           1452           1452         -3,940        3,54827
           1453           1453         -4,274        3,54832
           1454           1454         -4,607        3,54829
           1455           1455         -4,941        3,54822
           1456           1456         -5,274        3,54792
           1457           1457         -5,608        3,54768
           1458           1458         -5,941        3,54737
           1459           1459         -6,275        3,54706
           1460           1460         -6,609        3,53808
           1461           1461         -6,942        3,53569
           1462           1462         -7,276        3,53554
           1463           1463         -7,609        3,53589
           1464           1464         -7,943        3,53692
           1465           1465         -8,276        3,53762
           1466           1466         -8,610        3,53818
           1467           1467         -8,943        3,53872
           1468           1468         -9,277        3,53908
           1469           1469         -9,610        3,53944
           1470           1470         -9,944        3,53979
           1471           1471        -10,277           3,54
           1472           1472        -10,611        3,53979
           1473           1473        -10,944        3,53967
           1474           1474        -11,278        3,53959
           1475           1475        -11,612        3,53957
           1476           1476        -11,945        3,53941
           1477           1477        -12,279        3,53926
           1478           1478        -12,612        3,53909
           1479           1479        -12,946        3,53889
           1480           1480        -13,279        3,53876
           1481           1481        -13,613        3,53863
           1482           1482        -13,946        3,53842
           1483           1483        -14,280        3,53783
           1484           1484        -14,613        3,53837
           1485           1485        -14,947        3,53882
           1486           1486        -15,280        3,53974
           1487           1487        -15,614        3,54046
           1488           1488        -15,947        3,54148
           1489           1489        -16,281        3,54229
           1490           1490        -16,614        3,54295
           1491           1491        -16,948         3,5436
           1492           1492        -17,281        3,54431
           1493           1493        -17,615        3,54517
           1494           1494        -17,949        3,54599
           1495           1495        -18,282        3,54677
           1496           1496        -18,616        3,54776
           1497           1497        -18,949        3,54852
           1498           1498        -19,283        3,54937
           1499           1499        -19,616        3,55027
           1500           1500        -19,950           3,55
           1501           1501        -20,283        3,55026
           1502           1502        -20,617        3,55045
           1503           1503        -20,950        3,55036
           1504           1504        -21,284        3,55159
           1505           1505        -21,617        3,55241
           1506           1506        -21,951         3,5533
           1507           1507        -22,284         3,5543
           1508           1508        -22,618         3,5552
           1509           1509        -22,951          3,556
           1510           1510        -23,285        3,55672
           1511           1511        -23,618        3,55746
           1512           1512        -23,952        3,55828
           1513           1513        -24,285        3,55853
           1514           1514        -24,619        3,55916
           1515           1515        -24,952        3,55973
           1516           1516        -25,286        3,56024
           1517           1517        -25,619          3,562
           1518           1518        -25,953        3,56325
           1519           1519        -26,286         3,5645
           1520           1520        -26,620        3,56577
           1521           1521        -26,953        3,56707
           1522           1522        -27,287         3,5684
           1523           1523        -27,620        3,57117
           1524           1524        -27,954        3,57463
           1525           1525        -28,287        3,57356
           1526           1526        -28,621        3,57482
           1527           1527        -28,954        3,57598
           1528           1528        -29,288        3,57762
           1529           1529        -29,621        3,57933
           1530           1530        -29,955         3,5815
           1531           1531        -30,288        3,58446
           1532           1532        -30,622        3,58719
           1533           1533        -30,955        3,58967
           1534           1534        -31,289        3,59224
           1535           1535        -31,622        3,59471
           1536           1536        -31,956        3,59696
           1537           1537        -32,289         3,6014
           1538           1538        -32,623        3,60571
           1539           1539        -32,956         3,6089
           1540           1540        -33,290        3,61068
           1541           1541        -33,623        3,61231
           1542           1542        -33,957         3,6143
           1543           1543        -34,290        3,61629
           1544           1544        -34,624         3,6182
           1545           1545        -34,957        3,61985
           1546           1546        -35,291        3,62167
           1547           1547        -35,624        3,62349
           1548           1548        -35,958        3,62525
           1549           1549        -36,291        3,62704
           1550           1550        -36,625        3,62875
           1551           1551        -36,958        3,63041
           1552           1552        -37,292        3,63198
           1553           1553        -37,625        3,63376
           1554           1554        -37,959        3,63557
           1555           1555        -38,292         3,6374
           1556           1556        -38,626        3,63929
           1557           1557        -38,959        3,64135
           1558           1558        -39,293        3,64317
           1559           1559        -39,626        3,64498
           1560           1560        -39,960        3,64692
           1561           1561        -40,293        3,64868
           1562           1562        -40,627        3,65046
           1563           1563        -40,960        3,65218
           1564           1564        -41,294        3,65376
           1565           1565        -41,627        3,65548
           1566           1566        -41,961        3,65873
           1567           1567        -42,294        3,66451
           1568           1568        -42,628        3,66901
           1569           1569        -42,961         3,6726
           1570           1570        -43,295        3,67523
           1571           1571        -43,628        3,67746
           1572           1572        -43,962        3,68001
           1573           1573        -44,295        3,68364
           1574           1574        -44,629        3,68704
           1575           1575        -44,962        3,69059
           1576           1576        -45,295        3,69469
           1577           1577        -45,629        3,69408
           1578           1578        -45,963        3,69647
           1579           1579        -46,296        3,69921
           1580           1580        -46,629        3,70199
           1581           1581        -46,963        3,70417
           1582           1582        -47,296        3,70647
           1583           1583        -47,630        3,70877
           1584           1584        -47,963        3,71109
           1585           1585        -48,297        3,71325
           1586           1586        -48,630         3,7154
           1587           1587        -48,964        3,71837
           1588           1588        -49,297        3,72291
           1589           1589        -49,631        3,72168
           1590           1590        -49,964        3,72389
           1591           1591        -50,298        3,72788
           1592           1592        -50,631        3,73311
           1593           1593        -50,965        3,73956
           1594           1594        -51,298        3,74282
           1595           1595        -51,632        3,74528
           1596           1596        -51,965        3,74761
           1597           1597        -52,299        3,75159
           1598           1598        -52,632        3,75868
           1599           1599        -52,966        3,76491
           1600           1600        -53,299        3,76774
           1601           1601        -53,633        3,77233
           1602           1602        -53,966        3,77601
           1603           1603        -54,300        3,77955
           1604           1604        -54,633        3,78341
           1605           1605        -54,967         3,7766
           1606           1606        -55,300        3,77647
           1607           1607        -55,634        3,78257
           1608           1608        -55,967        3,79155
           1609           1609        -56,300        3,79943
           1610           1610        -56,634        3,80593
           1611           1611        -56,967        3,81167
           1612           1612        -57,301        3,81755
           1613           1613        -57,634        3,82323
           1614           1614        -57,968        3,82944
           1615           1615        -58,301        3,83467
           1616           1616        -58,635         3,8376
           1617           1617        -58,968        3,84062
           1618           1618        -59,302        3,84661
           1619           1619        -59,635        3,85331
           1620           1620        -59,969        3,86014
           1621           1621        -60,302        3,86352
           1622           1622        -60,636        3,86622
           1623           1623        -60,969        3,86743
           1624           1624        -61,303        3,86748
           1625           1625        -61,636        3,87169
           1626           1626        -61,970        3,87462
           1627           1627        -62,303         3,8782
           1628           1628        -62,636        3,88505
           1629           1629        -62,970        3,88423
           1630           1630        -63,304        3,88644
           1631           1631        -63,637        3,88903
           1632           1632        -63,970        3,89181
           1633           1633        -64,304         3,8945
           1634           1634        -64,637        3,89765
           1635           1635        -64,971        3,90217
           1636           1636        -65,304        3,90764
           1637           1637        -65,638        3,91108
           1638           1638        -65,971        3,91972
           1639           1639        -66,305         3,9289
           1640           1640        -66,638        3,93312
           1641           1641        -66,972        3,92268
           1642           1642        -67,306        3,89445
           1643           1643        -67,639        3,88274
           1644           1644        -67,973        3,88514
           1645           1645        -68,306        3,90384
           1646           1646        -68,639        3,91671
           1647           1647        -68,973        3,92347
           1648           1648        -69,306        3,92889
           1649           1649        -69,640         3,9321
           1650           1650        -69,973        3,93399
           1651           1651        -70,307        3,93369
           1652           1652        -70,640        3,93107
           1653           1653        -70,974        3,92896
           1654           1654        -71,307        3,92732
           1655           1655        -71,641        3,92525
           1656           1656        -71,974        3,92082
           1657           1657        -72,308        3,91505
           1658           1658        -72,642        3,90966
           1659           1659        -72,975        3,90416
           1660           1660        -73,309        3,89851
           1661           1661        -73,642        3,89031
           1662           1662        -73,976        3,88344
           1663           1663        -74,309        3,87966
           1664           1664        -74,643        3,87577
           1665           1665        -74,976        3,87086
           1666           1666        -75,310        3,86525
           1667           1667        -75,643        3,85729
           1668           1668        -75,977         3,8489
           1669           1669        -76,311        3,84069
           1670           1670        -76,644        3,83378
           1671           1671        -76,978        3,82695
           1672           1672        -77,311        3,81827
           1673           1673        -77,645        3,80962
           1674           1674        -77,978        3,80311
           1675           1675        -78,312        3,79299
           1676           1676        -78,645        3,78164
           1677           1677        -78,979        3,77778
           1678           1678        -79,312        3,77127
           1679           1679        -79,646        3,76809
           1680           1680        -79,979         3,7598
           1681           1681        -79,645        3,87544
           1682           1682        -79,310        4,21043
           1683           1683        -78,973        4,84285
           1684           1684        -78,635        5,58447
           1685           1685        -78,300        5,93194
           1686           1686        -77,966        5,93608
           1687           1687        -77,634        5,58628
           1688           1688        -77,304        5,03726
           1689           1689        -76,975        4,23318
           1690           1690        -76,647        3,41681
           1691           1691        -76,318        2,62171
           1692           1692        -75,989        1,85187
           1693           1693        -75,660        1,18248
           1694           1694        -75,330       0,565322
           1695           1695        -75,000       0,011606
           1696           1696        -74,670      -0,498773
           1697           1697        -74,339      -0,917562
           1698           1698        -74,008       -1,29811
           1699           1699        -73,677       -1,63601
           1700           1700        -73,346       -1,94722
           1701           1701        -73,014       -2,19576
           1702           1702        -72,682       -2,41432
           1703           1703        -72,350       -2,60742
           1704           1704        -72,018       -2,78329
           1705           1705        -71,686       -2,91817
           1706           1706        -71,353       -3,03756
           1707           1707        -71,021       -3,14217
           1708           1708        -70,688       -3,23575
           1709           1709        -70,356       -3,30708
           1710           1710        -70,023       -3,37008
           1711           1711        -69,690       -3,42516
           1712           1712        -69,357       -3,47474
           1713           1713        -69,024        -3,5135
           1714           1714        -68,691       -3,54553
           1715           1715        -68,358       -3,56944
           1716           1716        -68,025       -3,59084
           1717           1717        -67,692       -3,60824
           1718           1718        -67,359       -3,62294
           1719           1719        -67,026       -3,63516
           1720           1720        -66,693       -3,64389
           1721           1721        -66,360        -3,6497
           1722           1722        -66,027       -3,65597
           1723           1723        -65,694       -3,66211
           1724           1724        -65,360        -3,6684
           1725           1725        -65,027       -3,66741
           1726           1726        -64,694       -3,66659
           1727           1727        -64,361       -3,66628
           1728           1728        -64,028       -3,66587
           1729           1729        -63,695       -3,66406
           1730           1730        -63,361       -3,65985
           1731           1731        -63,028       -3,65623
           1732           1732        -62,695       -3,65067
           1733           1733        -62,362       -3,64789
           1734           1734        -62,029       -3,64196
           1735           1735        -61,695        -3,6361
           1736           1736        -61,362       -3,63198
           1737           1737        -61,029       -3,62555
           1738           1738        -60,696       -3,60612
           1739           1739        -60,362        -3,5808
           1740           1740        -60,029       -3,57088
           1741           1741        -59,696       -3,56972
           1742           1742        -59,363       -3,56769
           1743           1743        -59,029       -3,56333
           1744           1744        -58,696       -3,55805
           1745           1745        -58,363       -3,55206
           1746           1746        -58,030       -3,54276
           1747           1747        -57,697       -3,53123
           1748           1748        -57,363       -3,52643
           1749           1749        -57,030       -3,52297
           1750           1750        -56,697       -3,51885
           1751           1751        -56,364       -3,51515
           1752           1752        -56,031       -3,51392
           1753           1753        -55,697       -3,50671
           1754           1754        -55,364       -3,50076
           1755           1755        -55,031       -3,49663
           1756           1756        -54,698       -3,49249
           1757           1757        -54,364       -3,48797
           1758           1758        -54,031       -3,48274
           1759           1759        -53,698         -3,475
           1760           1760        -53,365       -3,46707
           1761           1761        -53,032       -3,45926
           1762           1762        -52,698       -3,45159
           1763           1763        -52,365        -3,4428
           1764           1764        -52,032       -3,43114
           1765           1765        -51,699       -3,42679
           1766           1766        -51,365       -3,42216
           1767           1767        -51,032       -3,41764
           1768           1768        -50,699       -3,41294
           1769           1769        -50,366       -3,41038
           1770           1770        -50,033       -3,40757
           1771           1771        -49,699        -3,4038
           1772           1772        -49,366       -3,39752
           1773           1773        -49,033       -3,39534
           1774           1774        -48,700       -3,39156
           1775           1775        -48,367        -3,3847
           1776           1776        -48,033       -3,37946
           1777           1777        -47,700       -3,37747
           1778           1778        -47,367       -3,37292
           1779           1779        -47,034       -3,37179
           1780           1780        -46,701        -3,3721
           1781           1781        -46,367        -3,3726
           1782           1782        -46,034        -3,3725
           1783           1783        -45,701       -3,37075
           1784           1784        -45,368       -3,36796
           1785           1785        -45,035       -3,36657
           1786           1786        -44,702       -3,36976
           1787           1787        -44,368       -3,37329
           1788           1788        -44,035       -3,37641
           1789           1789        -43,703       -3,43903
           1790           1790        -43,370       -3,51995
           1791           1791        -43,038       -3,54565
           1792           1792        -42,704       -3,53955
           1793           1793        -42,371       -3,51917
           1794           1794        -42,038       -3,50294
           1795           1795        -41,704       -3,48898
           1796           1796        -41,371       -3,47638
           1797           1797        -41,038       -3,46691
           1798           1798        -40,704       -3,45689
           1799           1799        -40,371       -3,44671
           1800           1800        -40,038       -3,43659
           1801           1801        -39,705       -3,42767
           1802           1802        -39,371       -3,42069
           1803           1803        -39,038       -3,41352
           1804           1804        -38,705       -3,40654
           1805           1805        -38,372       -3,40118
           1806           1806        -38,039       -3,39824
           1807           1807        -37,705       -3,39424
           1808           1808        -37,372       -3,39094
           1809           1809        -37,039       -3,38798
           1810           1810        -36,706       -3,38511
           1811           1811        -36,373       -3,38224
           1812           1812        -36,039       -3,37973
           1813           1813        -35,706       -3,37754
           1814           1814        -35,373       -3,37521
           1815           1815        -35,040       -3,37282
           1816           1816        -34,707       -3,37048
           1817           1817        -34,373       -3,36853
           1818           1818        -34,040       -3,36655
           1819           1819        -33,707        -3,3645
           1820           1820        -33,374       -3,36248
           1821           1821        -33,041       -3,36192
           1822           1822        -32,708       -3,36071
           1823           1823        -32,374       -3,35935
           1824           1824        -32,041       -3,35804
           1825           1825        -31,708       -3,35651
           1826           1826        -31,375       -3,35499
           1827           1827        -31,042       -3,35346
           1828           1828        -30,708       -3,35191
           1829           1829        -30,375       -3,35032
           1830           1830        -30,042       -3,34891
           1831           1831        -29,709       -3,34757
           1832           1832        -29,376       -3,34628
           1833           1833        -29,043       -3,34507
           1834           1834        -28,709       -3,34375
           1835           1835        -28,376       -3,34248
           1836           1836        -28,043        -3,3406
           1837           1837        -27,710       -3,33852
           1838           1838        -27,377       -3,33681
           1839           1839        -27,044       -3,33512
           1840           1840        -26,710       -3,33333
           1841           1841        -26,377       -3,33254
           1842           1842        -26,044       -3,33147
           1843           1843        -25,711       -3,33036
           1844           1844        -25,378       -3,32928
           1845           1845        -25,045       -3,32848
           1846           1846        -24,711       -3,32756
           1847           1847        -24,378       -3,32638
           1848           1848        -24,045       -3,32466
           1849           1849        -23,712       -3,32324
           1850           1850        -23,379       -3,32198
           1851           1851        -23,046       -3,32083
           1852           1852        -22,712       -3,31969
           1853           1853        -22,379         -3,319
           1854           1854        -22,046       -3,31834
           1855           1855        -21,713       -3,31777
           1856           1856        -21,380       -3,31726
           1857           1857        -21,047       -3,31703
           1858           1858        -20,713       -3,31651
           1859           1859        -20,380       -3,31591
           1860           1860        -20,047       -3,31524
           1861           1861        -19,714       -3,31444
           1862           1862        -19,381       -3,31367
           1863           1863        -19,048       -3,31293
           1864           1864        -18,714       -3,31222
           1865           1865        -18,381       -3,31152
           1866           1866        -18,048       -3,31073
           1867           1867        -17,715       -3,31003
           1868           1868        -17,382       -3,30945
           1869           1869        -17,049       -3,30907
           1870           1870        -16,715       -3,30848
           1871           1871        -16,382       -3,30803
           1872           1872        -16,049       -3,30797
           1873           1873        -15,716       -3,30712
           1874           1874        -15,383       -3,30625
           1875           1875        -15,050       -3,30523
           1876           1876        -14,716       -3,30514
           1877           1877        -14,383       -3,30496
           1878           1878        -14,050       -3,30444
           1879           1879        -13,717       -3,30381
           1880           1880        -13,384       -3,30321
           1881           1881        -13,051       -3,30232
           1882           1882        -12,718       -3,30154
           1883           1883        -12,384       -3,30079
           1884           1884        -12,051       -3,30004
           1885           1885        -11,718        -3,2996
           1886           1886        -11,385       -3,29925
           1887           1887        -11,052       -3,29892
           1888           1888        -10,719       -3,29865
           1889           1889        -10,385         -3,299
           1890           1890        -10,052       -3,29909
           1891           1891         -9,719        -3,2991
           1892           1892         -9,386       -3,29909
           1893           1893         -9,053       -3,29935
           1894           1894         -8,720        -3,2993
           1895           1895         -8,387       -3,29927
           1896           1896         -8,053       -3,29928
           1897           1897         -7,720       -3,29916
           1898           1898         -7,387       -3,29916
           1899           1899         -7,054       -3,29917
           1900           1900         -6,721       -3,29909
           1901           1901         -6,388       -3,29895
           1902           1902         -6,055       -3,29875
           1903           1903         -5,721       -3,29856
           1904           1904         -5,388       -3,29839
           1905           1905         -5,055       -3,29821
           1906           1906         -4,722       -3,29823
           1907           1907         -4,389       -3,29845
           1908           1908         -4,056       -3,29877
           1909           1909         -3,723       -3,29943
           1910           1910         -3,389       -3,29973
           1911           1911         -3,056       -3,29997
           1912           1912         -2,723       -3,30022
           1913           1913         -2,390       -3,30047
           1914           1914         -2,057       -3,30076
           1915           1915         -1,724       -3,30095
           1916           1916         -1,391       -3,30117
           1917           1917         -1,057       -3,30137
           1918           1918         -0,724       -3,30162
           1919           1919         -0,391        -3,3019
           1920           1920    -57,954e-03       -3,30222
           1921           1921          0,275       -3,30243
           1922           1922          0,608       -3,30284
           1923           1923          0,941       -3,30345
           1924           1924          1,275       -3,30414
           1925           1925          1,608       -3,30488
           1926           1926          1,941       -3,30555
           1927           1927          2,274       -3,30631
           1928           1928          2,607       -3,30722
           1929           1929          2,940       -3,30771
           1930           1930          3,273       -3,30823
           1931           1931          3,607       -3,30875
           1932           1932          3,940       -3,30932
           1933           1933          4,273        -3,3099
           1934           1934          4,606       -3,31056
           1935           1935          4,939       -3,31119
           1936           1936          5,272       -3,31184
           1937           1937          5,605       -3,31282
           1938           1938          5,938       -3,31359
           1939           1939          6,272       -3,31439
           1940           1940          6,605        -3,3152
           1941           1941          6,938       -3,31609
           1942           1942          7,271       -3,31687
           1943           1943          7,604       -3,31749
           1944           1944          7,937       -3,31799
           1945           1945          8,270       -3,31848
           1946           1946          8,604         -3,319
           1947           1947          8,937       -3,31947
           1948           1948          9,270       -3,31996
           1949           1949          9,603       -3,32054
           1950           1950          9,936       -3,32064
           1951           1951         10,269       -3,32217
           1952           1952         10,602       -3,32644
           1953           1953         10,935       -3,33155
           1954           1954         11,268       -3,33277
           1955           1955         11,602       -3,33286
           1956           1956         11,935       -3,33291
           1957           1957         12,268       -3,33263
           1958           1958         12,601       -3,33273
           1959           1959         12,934       -3,33293
           1960           1960         13,267       -3,33318
           1961           1961         13,600       -3,33377
           1962           1962         13,934       -3,33437
           1963           1963         14,267       -3,33506
           1964           1964         14,600       -3,33585
           1965           1965         14,933       -3,33704
           1966           1966         15,266        -3,3379
           1967           1967         15,599       -3,33868
           1968           1968         15,932       -3,33951
           1969           1969         16,265       -3,34026
           1970           1970         16,599       -3,34098
           1971           1971         16,932       -3,34174
           1972           1972         17,265        -3,3425
           1973           1973         17,598       -3,34318
           1974           1974         17,931       -3,34388
           1975           1975         18,264       -3,34458
           1976           1976         18,597       -3,34528
           1977           1977         18,931       -3,34629
           1978           1978         19,264       -3,34728
           1979           1979         19,597       -3,34821
           1980           1980         19,930       -3,34909
           1981           1981         20,263       -3,35038
           1982           1982         20,596        -3,3515
           1983           1983         20,929       -3,35257
           1984           1984         21,262       -3,35366
           1985           1985         21,595       -3,35468
           1986           1986         21,929        -3,3557
           1987           1987         22,262        -3,3567
           1988           1988         22,595       -3,35774
           1989           1989         22,928       -3,35866
           1990           1990         23,261       -3,35957
           1991           1991         23,594       -3,36044
           1992           1992         23,927       -3,36129
           1993           1993         24,260       -3,36202
           1994           1994         24,594       -3,36283
           1995           1995         24,927        -3,3638
           1996           1996         25,260       -3,36473
           1997           1997         25,593       -3,36577
           1998           1998         25,926       -3,36684
           1999           1999         26,259       -3,36789
           2000           2000         26,592       -3,36885
           2001           2001         26,925       -3,37004
           2002           2002         27,259       -3,37118
           2003           2003         27,592       -3,37232
           2004           2004         27,925       -3,37352
           2005           2005         28,258       -3,37465
           2006           2006         28,591       -3,37576
           2007           2007         28,924        -3,3768
           2008           2008         29,257       -3,37785
           2009           2009         29,590       -3,37877
           2010           2010         29,924       -3,37967
           2011           2011         30,257       -3,38062
           2012           2012         30,590       -3,38156
           2013           2013         30,923       -3,38238
           2014           2014         31,256       -3,38318
           2015           2015         31,589       -3,38397
           2016           2016         31,922       -3,38469
           2017           2017         32,255       -3,38525
           2018           2018         32,589       -3,38584
           2019           2019         32,922       -3,38648
           2020           2020         33,255       -3,38714
           2021           2021         33,588       -3,38784
           2022           2022         33,921        -3,3887
           2023           2023         34,254       -3,38963
           2024           2024         34,587       -3,39053
           2025           2025         34,920       -3,39179
           2026           2026         35,253       -3,39296
           2027           2027         35,587       -3,39412
           2028           2028         35,920        -3,3953
           2029           2029         36,253       -3,39651
           2030           2030         36,586       -3,39772
           2031           2031         36,919       -3,39898
           2032           2032         37,252       -3,40021
           2033           2033         37,585       -3,40142
           2034           2034         37,918       -3,40318
           2035           2035         38,251       -3,40615
           2036           2036         38,585       -3,40933
           2037           2037         38,918       -3,41233
           2038           2038         39,251       -3,41545
           2039           2039         39,584       -3,41732
           2040           2040         39,917        -3,4183
           2041           2041         40,250       -3,41949
           2042           2042         40,583         -3,421
           2043           2043         40,916       -3,42247
           2044           2044         41,249       -3,42394
           2045           2045         41,582       -3,42549
           2046           2046         41,915       -3,42704
           2047           2047         42,249       -3,42868
           2048           2048         42,582        -3,4304
           2049           2049         42,915       -3,43222
           2050           2050         43,248       -3,43405
           2051           2051         43,581       -3,43588
           2052           2052         43,914        -3,4377
           2053           2053         44,247       -3,43961
           2054           2054         44,580       -3,44141
           2055           2055         44,913       -3,44316
           2056           2056         45,246       -3,44491
           2057           2057         45,580        -3,4466
           2058           2058         45,913       -3,44855
           2059           2059         46,246       -3,45062
           2060           2060         46,579       -3,45275
           2061           2061         46,912       -3,45541
           2062           2062         47,245       -3,45803
           2063           2063         47,578       -3,46063
           2064           2064         47,911       -3,46325
           2065           2065         48,244         -3,466
           2066           2066         48,577       -3,46921
           2067           2067         48,910       -3,47237
           2068           2068         49,243       -3,47562
           2069           2069         49,576       -3,47891
           2070           2070         49,909       -3,48238
           2071           2071         50,242       -3,48583
           2072           2072         50,575       -3,48936
           2073           2073         50,909       -3,49295
           2074           2074         51,242       -3,49655
           2075           2075         51,575       -3,50023
           2076           2076         51,908       -3,50396
           2077           2077         52,241       -3,50771
           2078           2078         52,574       -3,51172
           2079           2079         52,907       -3,51578
           2080           2080         53,240       -3,51998
           2081           2081         53,573       -3,52428
           2082           2082         53,906       -3,52906
           2083           2083         54,239       -3,53381
           2084           2084         54,572       -3,53865
           2085           2085         54,905       -3,54394
           2086           2086         55,238       -3,54984
           2087           2087         55,571       -3,55629
           2088           2088         55,904       -3,56339
           2089           2089         56,237       -3,57061
           2090           2090         56,570       -3,57838
           2091           2091         56,902       -3,58665
           2092           2092         57,235       -3,59667
           2093           2093         57,568       -3,60778
           2094           2094         57,901       -3,62091
           2095           2095         58,234       -3,63507
           2096           2096         58,566       -3,65115
           2097           2097         58,899       -3,66869
           2098           2098         59,232        -3,6895
           2099           2099         59,564       -3,71218
           2100           2100         59,896       -3,73943
           2101           2101         60,229       -3,76954
           2102           2102         60,561       -3,80833
           2103           2103         60,893       -3,84915
           2104           2104         61,224       -3,89511
           2105           2105         61,556       -3,94512
           2106           2106         61,888       -4,00653
           2107           2107         62,219       -4,07005
           2108           2108         62,550       -4,13884
           2109           2109         62,881       -4,21167
           2110           2110         63,212       -4,28684
           2111           2111         63,543       -4,36142
           2112           2112         63,874         -4,434
           2113           2113         64,205       -4,50323
           2114           2114         64,536       -4,56186
           2115           2115         64,868       -4,61423
           2116           2116         65,200       -4,65725
           2117           2117         65,532       -4,69351
           2118           2118         65,864       -4,71297
           2119           2119         66,197       -4,72606
           2120           2120         66,530       -4,73301
           2121           2121         66,863       -4,73666
           2122           2122         67,196       -4,72995
           2123           2123         67,529       -4,72171
           2124           2124         67,863       -4,71168
           2125           2125         68,196       -4,70062
           2126           2126         68,530       -4,68884
           2127           2127         68,863       -4,67759
           2128           2128         69,196       -4,66615
           2129           2129         69,530       -4,65426
           2130           2130         69,863       -4,64439
           2131           2131         70,196       -4,63568
           2132           2132         70,530       -4,62815
           2133           2133         70,863       -4,62097
           2134           2134         71,196        -4,6149
           2135           2135         71,530       -4,60909
           2136           2136         71,863       -4,60435
           2137           2137         72,196       -4,59994
           2138           2138         72,529       -4,59666
           2139           2139         72,862       -4,59373
           2140           2140         73,195       -4,59101
           2141           2141         73,529       -4,58851
           2142           2142         73,862       -4,58698
           2143           2143         74,195       -4,58549
           2144           2144         74,528       -4,58435
           2145           2145         74,861       -4,58325
           2146           2146         75,194       -4,58289
           2147           2147         75,527       -4,58236
           2148           2148         75,860       -4,58191
           2149           2149         76,193       -4,58158
           2150           2150         76,526       -4,58192
           2151           2151         76,859       -4,58216
           2152           2152         77,193       -4,58244
           2153           2153         77,526       -4,58271
           2154           2154         77,859       -4,58329
           2155           2155         78,192       -4,58373
           2156           2156         78,525       -4,58416
           2157           2157         78,858       -4,58463
           2158           2158         79,191       -4,58508
           2159           2159         79,524       -4,58554
           2160           2160         79,857       -4,58596
           2161           2161         80,190       -4,58633
           2162           2162         80,523        -4,5867
           2163           2163         80,856       -4,58703
           2164           2164         81,189       -4,58732
           2165           2165         81,522       -4,58764
           2166           2166         81,855       -4,58776
           2167           2167         82,188       -4,58796
           2168           2168         82,521       -4,58821
           2169           2169         82,855       -4,58851
           2170           2170         83,188        -4,5888
           2171           2171         83,521       -4,58908
           2172           2172         83,854       -4,58937
           2173           2173         84,187       -4,58964
           2174           2174         84,520       -4,58987
           2175           2175         84,853       -4,59006
           2176           2176         85,186        -4,5902
           2177           2177         85,519       -4,59032
           2178           2178         85,852       -4,59028
           2179           2179         86,185       -4,59027
           2180           2180         86,518       -4,59027
           2181           2181         86,851       -4,59023
           2182           2182         87,184       -4,59017
           2183           2183         87,518       -4,59014
           2184           2184         87,851       -4,59007
           2185           2185         88,184       -4,58995
           2186           2186         88,517       -4,58977
           2187           2187         88,850       -4,58957
           2188           2188         89,183       -4,58939
           2189           2189         89,516       -4,58922
           2190           2190         89,849       -4,58895
           2191           2191         90,182       -4,58876
           2192           2192         90,515       -4,58871
           2193           2193         90,848       -4,58869
           2194           2194         91,181       -4,58883
           2195           2195         91,515       -4,58891
           2196           2196         91,848       -4,58905
           2197           2197         92,181       -4,58921
           2198           2198         92,514       -4,58954
           2199           2199         92,847       -4,58982
           2200           2200         93,180       -4,59011
           2201           2201         93,513       -4,59035
           2202           2202         93,846       -4,59054
           2203           2203         94,179       -4,59064
           2204           2204         94,512        -4,5907
           2205           2205         94,845       -4,59073
           2206           2206         95,178       -4,59073
           2207           2207         95,511       -4,59049
           2208           2208         95,844       -4,59039
           2209           2209         96,178       -4,59029
           2210           2210         96,511       -4,59023
           2211           2211         96,844       -4,59009
           2212           2212         97,177       -4,58995
           2213           2213         97,510       -4,58977
           2214           2214         97,843       -4,58954
           2215           2215         98,176       -4,58928
           2216           2216         98,509       -4,58907
           2217           2217         98,842       -4,58887
           2218           2218         99,175       -4,58872
           2219           2219         99,508       -4,58865
           2220           2220         99,841       -4,58857
           2221           2221        100,175       -4,58853
           2222           2222        100,508        -4,5885
           2223           2223        100,841       -4,58846
           2224           2224        101,174        -4,5884
           2225           2225        101,507       -4,58835
           2226           2226        101,840       -4,58832
           2227           2227        102,173       -4,58816
           2228           2228        102,506       -4,58802
           2229           2229        102,839       -4,58785
           2230           2230        103,172       -4,58761
           2231           2231        103,505       -4,58738
           2232           2232        103,839       -4,58724
           2233           2233        104,172       -4,58708
           2234           2234        104,505       -4,58688
           2235           2235        104,838       -4,58664
           2236           2236        105,171       -4,58636
           2237           2237        105,504       -4,58606
           2238           2238        105,837       -4,58576
           2239           2239        106,170       -4,58538
           2240           2240        106,503       -4,58508
           2241           2241        106,836       -4,58477
           2242           2242        107,169       -4,58442
           2243           2243        107,503       -4,58408
           2244           2244        107,836       -4,58369
           2245           2245        108,169       -4,58331
           2246           2246        108,502       -4,58291
           2247           2247        108,835       -4,58242
           2248           2248        109,168         -4,582
           2249           2249        109,501       -4,58166
           2250           2250        109,834       -4,58138
           2251           2251        110,167       -4,58128
           2252           2252        110,500       -4,58124
           2253           2253        110,834       -4,58122
           2254           2254        111,167       -4,58123
           2255           2255        111,500       -4,58144
           2256           2256        111,833       -4,58158
           2257           2257        112,166       -4,58172
           2258           2258        112,499       -4,58183
           2259           2259        112,832       -4,58191
           2260           2260        113,165       -4,58198
           2261           2261        113,498       -4,58205
           2262           2262        113,831       -4,58219
           2263           2263        114,164       -4,58233
           2264           2264        114,497       -4,58253
           2265           2265        114,831       -4,58275
           2266           2266        115,164       -4,58295
           2267           2267        115,497       -4,58324
           2268           2268        115,830       -4,58342
           2269           2269        116,163       -4,58353
           2270           2270        116,496       -4,58358
           2271           2271        116,829       -4,58343
           2272           2272        117,162       -4,58335
           2273           2273        117,495        -4,5833
           2274           2274        117,828       -4,58325
           2275           2275        118,161       -4,58329
           2276           2276        118,494        -4,5834
           2277           2277        118,828        -4,5836
           2278           2278        119,161       -4,58385
           2279           2279        119,494        -4,5844
           2280           2280        119,827       -4,58477
           2281           2281        120,160       -4,58511
           2282           2282        120,493       -4,58545
           2283           2283        120,826       -4,58573
           2284           2284        121,159       -4,58596
           2285           2285        121,492       -4,58615
           2286           2286        121,825       -4,58632
           2287           2287        122,158       -4,58643
           2288           2288        122,491       -4,58665
           2289           2289        122,825       -4,58687
           2290           2290        123,158       -4,58703
           2291           2291        123,491       -4,58726
           2292           2292        123,824       -4,58756
           2293           2293        124,157       -4,58786
           2294           2294        124,490       -4,58814
           2295           2295        124,823       -4,58836
           2296           2296        125,156       -4,58867
           2297           2297        125,489       -4,58898
           2298           2298        125,822       -4,58928
           2299           2299        126,155       -4,58951
           2300           2300        126,488       -4,58974
           2301           2301        126,822       -4,58993
           2302           2302        127,155       -4,59007
           2303           2303        127,488       -4,59017
           2304           2304        127,821        -4,5903
           2305           2305        128,154       -4,59042
           2306           2306        128,487       -4,59051
           2307           2307        128,820       -4,59053
           2308           2308        129,153        -4,5905
           2309           2309        129,486       -4,59042
           2310           2310        129,819       -4,59028
           2311           2311        130,152       -4,58996
           2312           2312        130,486       -4,58984
           2313           2313        130,819       -4,58988
           2314           2314        131,152       -4,59001
           2315           2315        131,485       -4,59026
           2316           2316        131,818       -4,59061
           2317           2317        132,151       -4,59104
           2318           2318        132,484       -4,59156
           2319           2319        132,817       -4,59238
           2320           2320        133,150       -4,59306
           2321           2321        133,483       -4,59378
           2322           2322        133,816       -4,59453
           2323           2323        134,149       -4,59537
           2324           2324        134,482       -4,59612
           2325           2325        134,816       -4,59683
           2326           2326        135,149       -4,59752
           2327           2327        135,482       -4,59811
           2328           2328        135,815       -4,59869
           2329           2329        136,148       -4,59926
           2330           2330        136,481       -4,59979
           2331           2331        136,814       -4,60017
           2332           2332        137,147       -4,60061
           2333           2333        137,480       -4,60109
           2334           2334        137,813        -4,6016
           2335           2335        138,146       -4,60221
           2336           2336        138,479        -4,6028
           2337           2337        138,812       -4,60333
           2338           2338        139,146       -4,60386
           2339           2339        139,479       -4,60448
           2340           2340        139,812       -4,60505
           2341           2341        140,145       -4,60565
           2342           2342        140,478       -4,60625
           2343           2343        140,811       -4,60675
           2344           2344        141,144       -4,60733
           2345           2345        141,477       -4,60791
           2346           2346        141,810       -4,60848
           2347           2347        142,143       -4,60911
           2348           2348        142,476       -4,60976
           2349           2349        142,809       -4,61045
           2350           2350        143,142        -4,6112
           2351           2351        143,476       -4,61198
           2352           2352        143,809        -4,6131
           2353           2353        144,142       -4,61423
           2354           2354        144,475       -4,61529
           2355           2355        144,808       -4,61643
           2356           2356        145,141       -4,61866
           2357           2357        145,474       -4,62167
           2358           2358        145,807       -4,62463
           2359           2359        146,140       -4,62746
           2360           2360        146,473        -4,6285
           2361           2361        146,806       -4,63042
           2362           2362        147,139       -4,63253
           2363           2363        147,472       -4,63464
           2364           2364        147,805       -4,63703
           2365           2365        148,138       -4,63938
           2366           2366        148,471       -4,64171
           2367           2367        148,804       -4,64405
           2368           2368        149,137       -4,64648
           2369           2369        149,470       -4,64864
           2370           2370        149,803       -4,65065
           2371           2371        150,136       -4,65257
           2372           2372        150,469       -4,65389
           2373           2373        150,802       -4,65533
           2374           2374        151,135       -4,65663
           2375           2375        151,468       -4,65741
           2376           2376        151,801       -4,65773
           2377           2377        152,134       -4,65819
           2378           2378        152,467        -4,6586
           2379           2379        152,800        -4,6587
           2380           2380        153,133       -4,65809
           2381           2381        153,467       -4,65701
           2382           2382        153,800       -4,65528
           2383           2383        154,133       -4,65333
           2384           2384        154,466       -4,65131
           2385           2385        154,799       -4,64948
           2386           2386        155,133       -4,64772
           2387           2387        155,466       -4,64605
           2388           2388        155,799       -4,64473
           2389           2389        156,132       -4,64349
           2390           2390        156,465       -4,64235
           2391           2391        156,798       -4,64123
           2392           2392        157,132        -4,6406
           2393           2393        157,465       -4,63982
           2394           2394        157,798       -4,63913
           2395           2395        158,131       -4,63856
           2396           2396        158,464       -4,63817
           2397           2397        158,797       -4,63786
           2398           2398        159,130        -4,6376
           2399           2399        159,463       -4,63739
           2400           2400        159,796       -4,63756
           2401           2401        160,130       -4,63767
           2402           2402        160,463       -4,63783
           2403           2403        160,796       -4,63806
           2404           2404        161,129       -4,63848
           2405           2405        161,462       -4,63886
           2406           2406        161,795       -4,63924
           2407           2407        162,128        -4,6396
           2408           2408        162,461       -4,63999
           2409           2409        162,794       -4,64036
           2410           2410        163,127       -4,64075
           2411           2411        163,461       -4,64113
           2412           2412        163,794       -4,64141
           2413           2413        164,127       -4,64175
           2414           2414        164,460       -4,64208
           2415           2415        164,793       -4,64241
           2416           2416        165,126        -4,6427
           2417           2417        165,459       -4,64302
           2418           2418        165,792       -4,64334
           2419           2419        166,125       -4,64364
           2420           2420        166,458       -4,64395
           2421           2421        166,791       -4,64425
           2422           2422        167,125       -4,64455
           2423           2423        167,458       -4,64479
           2424           2424        167,791       -4,64506
           2425           2425        168,124       -4,64531
           2426           2426        168,457       -4,64549
           2427           2427        168,790       -4,64566
           2428           2428        169,123       -4,64585
           2429           2429        169,456       -4,64608
           2430           2430        169,789       -4,64633
           2431           2431        170,122       -4,64666
           2432           2432        170,456       -4,64703
           2433           2433        170,789       -4,64733
           2434           2434        171,122       -4,64762
           2435           2435        171,455       -4,64789
           2436           2436        171,788       -4,64816
           2437           2437        172,121       -4,64844
           2438           2438        172,454       -4,64874
           2439           2439        172,787       -4,64909
           2440           2440        173,120       -4,64939
           2441           2441        173,453       -4,64966
           2442           2442        173,787       -4,64994
           2443           2443        174,120       -4,65024
           2444           2444        174,453       -4,65052
           2445           2445        174,786       -4,65078
           2446           2446        175,119       -4,65103
           2447           2447        175,452        -4,6513
           2448           2448        175,785       -4,65155
           2449           2449        176,118       -4,65176
           2450           2450        176,451       -4,65192
           2451           2451        176,784       -4,65207
           2452           2452        177,118       -4,65219
           2453           2453        177,451       -4,65238
           2454           2454        177,784       -4,65263
           2455           2455        178,117       -4,65288
           2456           2456        178,450       -4,65334
           2457           2457        178,783       -4,65386
           2458           2458        179,116        -4,6545
           2459           2459        179,449       -4,65522
           2460           2460        179,782        -4,6561
           2461           2461        180,115       -4,65683
           2462           2462        180,448       -4,65754
           2463           2463        180,782       -4,65828
           2464           2464        181,115       -4,65902
           2465           2465        181,448       -4,65987
           2466           2466        181,781       -4,66077
           2467           2467        182,114       -4,66165
           2468           2468        182,447       -4,66264
           2469           2469        182,780       -4,66345
           2470           2470        183,113       -4,66415
           2471           2471        183,446       -4,66477
           2472           2472        183,779       -4,66521
           2473           2473        184,112        -4,6657
           2474           2474        184,445       -4,66614
           2475           2475        184,779       -4,66654
           2476           2476        185,112       -4,66694
           2477           2477        185,445       -4,66743
           2478           2478        185,778       -4,66793
           2479           2479        186,111        -4,6684
           2480           2480        186,444         -4,669
           2481           2481        186,777       -4,66953
           2482           2482        187,110       -4,67008
           2483           2483        187,443       -4,67061
           2484           2484        187,776       -4,67106
           2485           2485        188,109       -4,67152
           2486           2486        188,443       -4,67196
           2487           2487        188,776       -4,67239
           2488           2488        189,109       -4,67279
           2489           2489        189,442       -4,67325
           2490           2490        189,775       -4,67372
           2491           2491        190,108       -4,67418
           2492           2492        190,441        -4,6747
           2493           2493        190,774       -4,67517
           2494           2494        191,107       -4,67562
           2495           2495        191,440       -4,67601
           2496           2496        191,774       -4,67639
           2497           2497        192,107       -4,67678
           2498           2498        192,440       -4,67717
           2499           2499        192,773       -4,67759
           2500           2500        193,106       -4,67802
           2501           2501        193,439       -4,67847
           2502           2502        193,772       -4,67893
           2503           2503        194,105       -4,67941
           2504           2504        194,438       -4,67993
           2505           2505        194,771       -4,68044
           2506           2506        195,105       -4,68095
           2507           2507        195,438       -4,68144
           2508           2508        195,771       -4,68189
           2509           2509        196,104        -4,6823
           2510           2510        196,437       -4,68266
           2511           2511        196,770       -4,68298
           2512           2512        197,103       -4,68332
           2513           2513        197,436       -4,68364
           2514           2514        197,769       -4,68395
           2515           2515        198,102       -4,68432
           2516           2516        198,436       -4,68475
           2517           2517        198,769       -4,68518
           2518           2518        199,102       -4,68559
           2519           2519        199,435       -4,68597
           2520           2520        199,768       -4,68637


Results:
  Step	-0,16 Wg^-1
  	-0,95 mW
  Onset	58,39 °C
  Inflect. Pt.	61,21 °C
  Midpoint	59,95 °C
  Angle Midpoint	60,00 °C

  Step	-8,73e-03 Wg^-1
  	-51,50e-03 mW
  Onset	128,66 °C
  Inflect. Pt.	131,48 °C
  Midpoint	129,66 °C
  Angle Midpoint	129,32 °C

  Step	-0,18 Wg^-1
  	-1,09 mW
  Onset	58,53 °C
  Inflect. Pt.	53,78 °C
  Midpoint	52,68 °C
  Angle Midpoint	52,43 °C

  Step	-0,17 Wg^-1
  	-0,98 mW
  Onset	59,93 °C
  Inflect. Pt.	63,21 °C
  Midpoint	62,02 °C
  Angle Midpoint	62,29 °C

  Step	-26,46e-03 Wg^-1
  	-0,16 mW
  Onset	-44,47 °C
  Inflect. Pt.	-44,04 °C
  Midpoint	-43,89 °C
  Angle Midpoint	-43,74 °C

  Integral	-43,61 mJ
    normalized	-7,39 Jg^-1
  Onset	144,38 °C
  Peak	152,74 °C

Sample:
  ClaudiaOlga_DSC_GR26-PLAA, 5,9000 mg


________________________________________________________________________________
Not signed                                                        STARe SW 16.40