Grazia_DSC_GR31                                                 01.02.2023 13:55
________________________________________________________________________________



Curve Name:
  Grazia_DSC_GR31, 01.02.2023 13:53:08
  Performed 01.02.2023 13:53:08
Curve Values:
          Index              t             Ts          Value
                           [s]           [°C]           [mW]
              0              0        -80,001      -0,105218
              1              1        -79,667     -0,0924909
              2              2        -79,334     -0,0547318
              3              3        -79,000      -0,073414
              4              4        -78,669      -0,485732
              5              5        -78,339       -1,07083
              6              6        -78,010       -1,76303
              7              7        -77,681       -2,48303
              8              8        -77,351       -3,11975
              9              9        -77,021        -3,6769
             10             10        -76,691       -4,15569
             11             11        -76,360       -4,57363
             12             12        -76,029       -4,86347
             13             13        -75,697       -5,10529
             14             14        -75,365       -5,29744
             15             15        -75,033       -5,46199
             16             16        -74,701       -5,57177
             17             17        -74,368       -5,65839
             18             18        -74,035       -5,72798
             19             19        -73,703       -5,78583
             20             20        -73,370       -5,81579
             21             21        -73,037       -5,83995
             22             22        -72,704       -5,85464
             23             23        -72,371       -5,86346
             24             24        -72,038         -5,864
             25             25        -71,705       -5,86375
             26             26        -71,372          -5,86
             27             27        -71,038       -5,85046
             28             28        -70,705       -5,84154
             29             29        -70,372        -5,8319
             30             30        -70,039       -5,82098
             31             31        -69,706       -5,80986
             32             32        -69,373       -5,79415
             33             33        -69,039       -5,77194
             34             34        -68,706       -5,75579
             35             35        -68,373       -5,74291
             36             36        -68,040       -5,72765
             37             37        -67,707       -5,71298
             38             38        -67,374       -5,69841
             39             39        -67,040       -5,68346
             40             40        -66,707        -5,6635
             41             41        -66,374        -5,6492
             42             42        -66,041       -5,63667
             43             43        -65,708       -5,61994
             44             44        -65,374       -5,60557
             45             45        -65,041       -5,59021
             46             46        -64,708       -5,57332
             47             47        -64,375       -5,55562
             48             48        -64,042       -5,53933
             49             49        -63,708       -5,52635
             50             50        -63,375       -5,51147
             51             51        -63,042       -5,49578
             52             52        -62,709       -5,48032
             53             53        -62,376         -5,467
             54             54        -62,042        -5,4521
             55             55        -61,709       -5,43754
             56             56        -61,376       -5,42409
             57             57        -61,043       -5,41022
             58             58        -60,710        -5,3966
             59             59        -60,376       -5,38346
             60             60        -60,043       -5,37151
             61             61        -59,710       -5,36072
             62             62        -59,377       -5,35181
             63             63        -59,044       -5,34418
             64             64        -58,711       -5,32639
             65             65        -58,377       -5,31289
             66             66        -58,044       -5,29795
             67             67        -57,711       -5,28284
             68             68        -57,378       -5,27738
             69             69        -57,045       -5,26248
             70             70        -56,711       -5,24933
             71             71        -56,378       -5,23867
             72             72        -56,045       -5,22759
             73             73        -55,712       -5,21666
             74             74        -55,379       -5,20744
             75             75        -55,045       -5,19823
             76             76        -54,712       -5,18888
             77             77        -54,379       -5,17904
             78             78        -54,046       -5,16828
             79             79        -53,713       -5,15777
             80             80        -53,380       -5,14749
             81             81        -53,046       -5,13724
             82             82        -52,713       -5,12706
             83             83        -52,380       -5,11696
             84             84        -52,047       -5,10716
             85             85        -51,714        -5,0973
             86             86        -51,380       -5,08758
             87             87        -51,047       -5,07788
             88             88        -50,714       -5,06831
             89             89        -50,381       -5,05874
             90             90        -50,048       -5,04926
             91             91        -49,715       -5,03968
             92             92        -49,381       -5,02999
             93             93        -49,048       -5,02094
             94             94        -48,715       -5,01206
             95             95        -48,382       -5,00124
             96             96        -48,049       -4,99144
             97             97        -47,715       -4,98314
             98             98        -47,382       -4,97242
             99             99        -47,049       -4,96414
            100            100        -46,716       -4,95637
            101            101        -46,383        -4,9481
            102            102        -46,050       -4,93932
            103            103        -45,716        -4,9296
            104            104        -45,383          -4,92
            105            105        -45,050       -4,91251
            106            106        -44,717       -4,90429
            107            107        -44,384       -4,89835
            108            108        -44,050       -4,88952
            109            109        -43,717       -4,88146
            110            110        -43,384       -4,87366
            111            111        -43,051       -4,86625
            112            112        -42,718       -4,85687
            113            113        -42,385       -4,84419
            114            114        -42,051       -4,83548
            115            115        -41,718       -4,83066
            116            116        -41,385       -4,82238
            117            117        -41,052       -4,81427
            118            118        -40,719       -4,80596
            119            119        -40,385       -4,79763
            120            120        -40,052       -4,78955
            121            121        -39,719       -4,78249
            122            122        -39,386        -4,7762
            123            123        -39,053       -4,77014
            124            124        -38,720       -4,76251
            125            125        -38,386       -4,75541
            126            126        -38,053       -4,74856
            127            127        -37,720       -4,74167
            128            128        -37,387       -4,73507
            129            129        -37,054       -4,72857
            130            130        -36,721       -4,72196
            131            131        -36,387       -4,71525
            132            132        -36,054       -4,70961
            133            133        -35,721       -4,70343
            134            134        -35,388       -4,69728
            135            135        -35,055       -4,69142
            136            136        -34,722       -4,68479
            137            137        -34,388       -4,67844
            138            138        -34,055       -4,67197
            139            139        -33,722       -4,66558
            140            140        -33,389       -4,65976
            141            141        -33,056       -4,65377
            142            142        -32,723       -4,64713
            143            143        -32,389        -4,6394
            144            144        -32,056       -4,63436
            145            145        -31,723       -4,62829
            146            146        -31,390       -4,62188
            147            147        -31,057       -4,61536
            148            148        -30,724       -4,60859
            149            149        -30,390       -4,60218
            150            150        -30,057       -4,59574
            151            151        -29,724       -4,58894
            152            152        -29,391       -4,58381
            153            153        -29,058       -4,57827
            154            154        -28,725       -4,57272
            155            155        -28,391       -4,56711
            156            156        -28,058       -4,56181
            157            157        -27,725       -4,55639
            158            158        -27,392       -4,55099
            159            159        -27,059       -4,54557
            160            160        -26,726       -4,53991
            161            161        -26,392       -4,53431
            162            162        -26,059       -4,52878
            163            163        -25,726       -4,52326
            164            164        -25,393       -4,51761
            165            165        -25,060       -4,51209
            166            166        -24,727       -4,50665
            167            167        -24,393       -4,50135
            168            168        -24,060       -4,49628
            169            169        -23,727       -4,49123
            170            170        -23,394       -4,48633
            171            171        -23,061       -4,48155
            172            172        -22,728        -4,4773
            173            173        -22,394       -4,47281
            174            174        -22,061       -4,46822
            175            175        -21,728       -4,46354
            176            176        -21,395       -4,45904
            177            177        -21,062       -4,45442
            178            178        -20,729       -4,44977
            179            179        -20,395       -4,44499
            180            180        -20,062       -4,44013
            181            181        -19,729       -4,43536
            182            182        -19,396       -4,43064
            183            183        -19,063       -4,42594
            184            184        -18,730       -4,42126
            185            185        -18,397       -4,41659
            186            186        -18,063       -4,41209
            187            187        -17,730       -4,40772
            188            188        -17,397       -4,40354
            189            189        -17,064       -4,39928
            190            190        -16,731       -4,39496
            191            191        -16,398       -4,39067
            192            192        -16,064       -4,38623
            193            193        -15,731       -4,38188
            194            194        -15,398       -4,37753
            195            195        -15,065       -4,37328
            196            196        -14,732       -4,36889
            197            197        -14,399       -4,36457
            198            198        -14,065       -4,36037
            199            199        -13,732       -4,35623
            200            200        -13,399        -4,3524
            201            201        -13,066       -4,34854
            202            202        -12,733       -4,34464
            203            203        -12,400       -4,34075
            204            204        -12,067       -4,33726
            205            205        -11,733       -4,33364
            206            206        -11,400       -4,33007
            207            207        -11,067       -4,32648
            208            208        -10,734       -4,32337
            209            209        -10,401       -4,32011
            210            210        -10,068       -4,31686
            211            211         -9,735       -4,31375
            212            212         -9,401       -4,31052
            213            213         -9,068        -4,3063
            214            214         -8,735       -4,30159
            215            215         -8,402       -4,29707
            216            216         -8,069        -4,2929
            217            217         -7,736       -4,28857
            218            218         -7,402       -4,28436
            219            219         -7,069       -4,28033
            220            220         -6,736       -4,27834
            221            221         -6,403       -4,27574
            222            222         -6,070       -4,27289
            223            223         -5,737          -4,27
            224            224         -5,404        -4,2672
            225            225         -5,070       -4,26418
            226            226         -4,737       -4,26119
            227            227         -4,404        -4,2582
            228            228         -4,071       -4,25515
            229            229         -3,738       -4,25216
            230            230         -3,405       -4,24917
            231            231         -3,072       -4,24624
            232            232         -2,738       -4,24367
            233            233         -2,405       -4,24093
            234            234         -2,072       -4,23827
            235            235         -1,739       -4,23559
            236            236         -1,406       -4,23377
            237            237         -1,073       -4,23162
            238            238         -0,740       -4,22941
            239            239         -0,406       -4,22729
            240            240    -73,348e-03       -4,22541
            241            241          0,260       -4,22347
            242            242          0,593       -4,22149
            243            243          0,926       -4,21952
            244            244          1,259       -4,21785
            245            245          1,592       -4,21614
            246            246          1,925       -4,21443
            247            247          2,259       -4,21279
            248            248          2,592       -4,21136
            249            249          2,925       -4,20978
            250            250          3,258       -4,20808
            251            251          3,591       -4,20636
            252            252          3,924       -4,20461
            253            253          4,257       -4,20291
            254            254          4,590       -4,20126
            255            255          4,924       -4,19966
            256            256          5,257       -4,19837
            257            257          5,590       -4,19706
            258            258          5,923       -4,19596
            259            259          6,256       -4,19496
            260            260          6,589       -4,19423
            261            261          6,922        -4,1934
            262            262          7,255       -4,19305
            263            263          7,588       -4,19368
            264            264          7,922       -4,19509
            265            265          8,255       -4,19581
            266            266          8,588       -4,19649
            267            267          8,921        -4,1973
            268            268          9,254       -4,19793
            269            269          9,587       -4,19868
            270            270          9,920       -4,19952
            271            271         10,253       -4,20041
            272            272         10,586       -4,20136
            273            273         10,919       -4,20231
            274            274         11,252       -4,20328
            275            275         11,585       -4,20433
            276            276         11,919       -4,20534
            277            277         12,252       -4,20644
            278            278         12,585       -4,20772
            279            279         12,918       -4,20913
            280            280         13,251       -4,21094
            281            281         13,584       -4,21264
            282            282         13,917       -4,21467
            283            283         14,250       -4,21686
            284            284         14,583       -4,22005
            285            285         14,916       -4,22326
            286            286         15,249       -4,22639
            287            287         15,582       -4,22949
            288            288         15,915       -4,23309
            289            289         16,248       -4,23664
            290            290         16,581       -4,24026
            291            291         16,914       -4,24389
            292            292         17,247       -4,24789
            293            293         17,580       -4,25189
            294            294         17,913       -4,25596
            295            295         18,246       -4,26013
            296            296         18,579       -4,26484
            297            297         18,912       -4,26929
            298            298         19,245       -4,27385
            299            299         19,578       -4,27857
            300            300         19,911       -4,28523
            301            301         20,244       -4,29138
            302            302         20,577        -4,2975
            303            303         20,910       -4,30348
            304            304         21,243       -4,30988
            305            305         21,576       -4,31589
            306            306         21,909       -4,32201
            307            307         22,242       -4,32838
            308            308         22,575        -4,3378
            309            309         22,908       -4,34699
            310            310         23,241       -4,35617
            311            311         23,574       -4,36511
            312            312         23,906        -4,3741
            313            313         24,239       -4,38306
            314            314         24,572        -4,3921
            315            315         24,905        -4,4012
            316            316         25,238       -4,41013
            317            317         25,571       -4,41915
            318            318         25,904       -4,42874
            319            319         26,237       -4,43931
            320            320         26,570       -4,45002
            321            321         26,902       -4,45963
            322            322         27,235       -4,46854
            323            323         27,568       -4,47768
            324            324         27,901       -4,48698
            325            325         28,234       -4,49637
            326            326         28,567       -4,50586
            327            327         28,900       -4,51546
            328            328         29,233       -4,52556
            329            329         29,565       -4,53557
            330            330         29,898       -4,54555
            331            331         30,231       -4,55552
            332            332         30,564       -4,56579
            333            333         30,897       -4,57582
            334            334         31,230       -4,58579
            335            335         31,563       -4,59574
            336            336         31,895       -4,60557
            337            337         32,228       -4,61554
            338            338         32,561       -4,62563
            339            339         32,894       -4,63564
            340            340         33,227       -4,64636
            341            341         33,560       -4,65726
            342            342         33,892       -4,66811
            343            343         34,225       -4,67903
            344            344         34,558       -4,69057
            345            345         34,891       -4,70207
            346            346         35,224       -4,71366
            347            347         35,556       -4,72536
            348            348         35,889       -4,73765
            349            349         36,222       -4,74982
            350            350         36,555       -4,76225
            351            351         36,888       -4,77455
            352            352         37,220       -4,78704
            353            353         37,553       -4,79929
            354            354         37,886       -4,81145
            355            355         38,219       -4,82329
            356            356         38,551        -4,8342
            357            357         38,884       -4,84519
            358            358         39,217       -4,85528
            359            359         39,550       -4,86475
            360            360         39,883       -4,87252
            361            361         40,216       -4,87997
            362            362         40,549       -4,88659
            363            363         40,881       -4,89258
            364            364         41,214       -4,89702
            365            365         41,547       -4,90113
            366            366         41,880       -4,90482
            367            367         42,213       -4,90886
            368            368         42,546       -4,91247
            369            369         42,879       -4,91611
            370            370         43,212       -4,91975
            371            371         43,545       -4,92325
            372            372         43,878        -4,9264
            373            373         44,211       -4,92973
            374            374         44,544       -4,93278
            375            375         44,877       -4,93533
            376            376         45,210       -4,93664
            377            377         45,543       -4,93795
            378            378         45,876       -4,93913
            379            379         46,209       -4,94028
            380            380         46,542       -4,94159
            381            381         46,875       -4,93866
            382            382         47,209       -4,93118
            383            383         47,542         -4,923
            384            384         47,875       -4,92284
            385            385         48,208       -4,92261
            386            386         48,541       -4,92242
            387            387         48,874       -4,92201
            388            388         49,207       -4,92146
            389            389         49,540       -4,92081
            390            390         49,873       -4,92007
            391            391         50,206       -4,91926
            392            392         50,540       -4,91788
            393            393         50,873       -4,91674
            394            394         51,206       -4,91566
            395            395         51,539       -4,91468
            396            396         51,872        -4,9137
            397            397         52,205       -4,91259
            398            398         52,538       -4,91224
            399            399         52,871        -4,9124
            400            400         53,204       -4,91408
            401            401         53,537       -4,91539
            402            402         53,870       -4,91677
            403            403         54,203       -4,91813
            404            404         54,536       -4,91999
            405            405         54,869       -4,92185
            406            406         55,202       -4,92383
            407            407         55,535       -4,92582
            408            408         55,868       -4,92816
            409            409         56,201       -4,93046
            410            410         56,534       -4,93291
            411            411         56,867       -4,93544
            412            412         57,200       -4,93826
            413            413         57,533       -4,94109
            414            414         57,866       -4,94403
            415            415         58,199        -4,9471
            416            416         58,532       -4,95067
            417            417         58,865       -4,95421
            418            418         59,198       -4,95784
            419            419         59,531        -4,9614
            420            420         59,864       -4,96608
            421            421         60,197       -4,97048
            422            422         60,530       -4,97487
            423            423         60,863       -4,97926
            424            424         61,196       -4,98385
            425            425         61,528       -4,98829
            426            426         61,861       -4,99275
            427            427         62,194       -4,99719
            428            428         62,527       -5,00148
            429            429         62,860       -5,00587
            430            430         63,193       -5,01039
            431            431         63,526       -5,01499
            432            432         63,859       -5,01953
            433            433         64,192       -5,02414
            434            434         64,525       -5,02892
            435            435         64,858       -5,03382
            436            436         65,191       -5,03867
            437            437         65,523       -5,04382
            438            438         65,856       -5,04963
            439            439         66,189       -5,05555
            440            440         66,522        -5,0624
            441            441         66,855       -5,06924
            442            442         67,188       -5,07681
            443            443         67,521        -5,0845
            444            444         67,853       -5,09253
            445            445         68,186        -5,1005
            446            446         68,519       -5,10853
            447            447         68,852       -5,11654
            448            448         69,185       -5,12494
            449            449         69,517       -5,13326
            450            450         69,850       -5,14156
            451            451         70,183       -5,14991
            452            452         70,516       -5,15845
            453            453         70,849       -5,16699
            454            454         71,181       -5,17568
            455            455         71,514       -5,18452
            456            456         71,847       -5,19361
            457            457         72,180       -5,20271
            458            458         72,512       -5,21187
            459            459         72,845       -5,22104
            460            460         73,178       -5,23049
            461            461         73,511       -5,23991
            462            462         73,843       -5,24927
            463            463         74,176       -5,25862
            464            464         74,509        -5,2679
            465            465         74,842       -5,27713
            466            466         75,174       -5,28635
            467            467         75,507       -5,29553
            468            468         75,840       -5,30434
            469            469         76,173        -5,3132
            470            470         76,506       -5,32203
            471            471         76,838       -5,33072
            472            472         77,171         -5,339
            473            473         77,504       -5,34736
            474            474         77,837       -5,35569
            475            475         78,169       -5,36399
            476            476         78,502       -5,37195
            477            477         78,835       -5,37986
            478            478         79,168       -5,38768
            479            479         79,501       -5,39558
            480            480         79,833       -5,40237
            481            481         80,166       -5,40949
            482            482         80,499       -5,41655
            483            483         80,832       -5,42322
            484            484         81,165       -5,42951
            485            485         81,497       -5,43546
            486            486         81,830       -5,44004
            487            487         82,163       -5,44349
            488            488         82,496       -5,44639
            489            489         82,829       -5,45188
            490            490         83,162       -5,45758
            491            491         83,495       -5,46305
            492            492         83,828       -5,46812
            493            493         84,161       -5,47325
            494            494         84,493       -5,47797
            495            495         84,826       -5,48246
            496            496         85,159       -5,48599
            497            497         85,492       -5,48981
            498            498         85,825       -5,49346
            499            499         86,158       -5,49696
            500            500         86,491       -5,50028
            501            501         86,824        -5,5034
            502            502         87,157       -5,50585
            503            503         87,490        -5,5081
            504            504         87,823       -5,51028
            505            505         88,156       -5,51253
            506            506         88,489        -5,5147
            507            507         88,822       -5,51662
            508            508         89,155       -5,51349
            509            509         89,488       -5,51203
            510            510         89,821       -5,51399
            511            511         90,154       -5,51649
            512            512         90,487       -5,51837
            513            513         90,820       -5,52013
            514            514         91,153       -5,52207
            515            515         91,485        -5,5241
            516            516         91,818         -5,526
            517            517         92,151       -5,52791
            518            518         92,484       -5,52988
            519            519         92,817       -5,53195
            520            520         93,150       -5,52847
            521            521         93,484       -5,51728
            522            522         93,817       -5,51399
            523            523         94,150       -5,51803
            524            524         94,483         -5,525
            525            525         94,816       -5,53094
            526            526         95,148       -5,53654
            527            527         95,481        -5,5414
            528            528         95,814       -5,54556
            529            529         96,147       -5,54968
            530            530         96,480       -5,55359
            531            531         96,813       -5,55759
            532            532         97,146       -5,56115
            533            533         97,479       -5,56482
            534            534         97,812       -5,56846
            535            535         98,144        -5,5721
            536            536         98,477       -5,57567
            537            537         98,810       -5,57927
            538            538         99,143       -5,58288
            539            539         99,476       -5,58645
            540            540         99,809       -5,58989
            541            541        100,142       -5,59329
            542            542        100,475       -5,59666
            543            543        100,808       -5,60001
            544            544        101,141       -5,60311
            545            545        101,474       -5,60631
            546            546        101,807       -5,60952
            547            547        102,139       -5,61275
            548            548        102,472       -5,61617
            549            549        102,805       -5,61959
            550            550        103,138       -5,62307
            551            551        103,471       -5,62654
            552            552        103,804       -5,63019
            553            553        104,137       -5,63363
            554            554        104,470       -5,63704
            555            555        104,803       -5,64051
            556            556        105,136        -5,6439
            557            557        105,469       -5,64734
            558            558        105,801       -5,65077
            559            559        106,134        -5,6542
            560            560        106,467       -5,65797
            561            561        106,800       -5,65461
            562            562        107,134       -5,63857
            563            563        107,468       -5,62467
            564            564        107,800       -5,63334
            565            565        108,133       -5,64195
            566            566        108,466       -5,65018
            567            567        108,798       -5,65742
            568            568        109,131       -5,66363
            569            569        109,464       -5,66961
            570            570        109,797       -5,67557
            571            571        110,130       -5,68155
            572            572        110,463        -5,6873
            573            573        110,795       -5,69314
            574            574        111,128       -5,69893
            575            575        111,461        -5,7047
            576            576        111,794       -5,71045
            577            577        112,127       -5,71624
            578            578        112,459       -5,72207
            579            579        112,792       -5,72787
            580            580        113,125       -5,73402
            581            581        113,458          -5,74
            582            582        113,791       -5,74715
            583            583        114,123       -5,75501
            584            584        114,456       -5,76356
            585            585        114,789       -5,76967
            586            586        115,122       -5,77535
            587            587        115,455        -5,7811
            588            588        115,787       -5,78673
            589            589        116,120       -5,79288
            590            590        116,453       -5,80037
            591            591        116,786       -5,80861
            592            592        117,118       -5,81802
            593            593        117,451       -5,82721
            594            594        117,784       -5,83632
            595            595        118,116       -5,84551
            596            596        118,449       -5,85517
            597            597        118,782       -5,86483
            598            598        119,114        -5,8746
            599            599        119,447       -5,88444
            600            600        119,780       -5,89485
            601            601        120,112       -5,90525
            602            602        120,445       -5,91577
            603            603        120,778       -5,92646
            604            604        121,110       -5,93783
            605            605        121,443       -5,94906
            606            606        121,775       -5,96034
            607            607        122,108       -5,97199
            608            608        122,441       -5,98466
            609            609        122,773       -5,99735
            610            610        123,106       -6,01003
            611            611        123,438       -6,02294
            612            612        123,771       -6,03618
            613            613        124,103       -6,04934
            614            614        124,436       -6,06308
            615            615        124,768       -6,07772
            616            616        125,101       -6,09538
            617            617        125,433       -6,11464
            618            618        125,765       -6,13152
            619            619        126,098       -6,14849
            620            620        126,430       -6,16583
            621            621        126,762       -6,18453
            622            622        127,094       -6,20527
            623            623        127,427        -6,2273
            624            624        127,759       -6,24656
            625            625        128,091       -6,26669
            626            626        128,423       -6,28788
            627            627        128,755       -6,30967
            628            628        129,088        -6,3307
            629            629        129,420       -6,35285
            630            630        129,752       -6,37873
            631            631        130,084       -6,40582
            632            632        130,416       -6,43423
            633            633        130,747       -6,46277
            634            634        131,079       -6,49146
            635            635        131,411       -6,52083
            636            636        131,743       -6,55126
            637            637        132,075       -6,58205
            638            638        132,407       -6,61343
            639            639        132,738       -6,64492
            640            640        133,070       -6,67751
            641            641        133,402       -6,70981
            642            642        133,733       -6,74219
            643            643        134,065       -6,77466
            644            644        134,397       -6,80776
            645            645        134,729       -6,84073
            646            646        135,060        -6,8738
            647            647        135,392       -6,90729
            648            648        135,723       -6,94093
            649            649        136,055       -6,97441
            650            650        136,387       -7,00799
            651            651        136,718       -7,04179
            652            652        137,050       -7,07517
            653            653        137,382       -7,10705
            654            654        137,713        -7,1373
            655            655        138,045       -7,16944
            656            656        138,377       -7,20382
            657            657        138,708       -7,23796
            658            658        139,040       -7,27199
            659            659        139,372       -7,30566
            660            660        139,703       -7,34171
            661            661        140,035       -7,37703
            662            662        140,366       -7,41269
            663            663        140,698       -7,44819
            664            664        141,029       -7,48426
            665            665        141,361       -7,52068
            666            666        141,692       -7,55858
            667            667        142,023       -7,59758
            668            668        142,355       -7,64027
            669            669        142,686       -7,68494
            670            670        143,017       -7,73346
            671            671        143,347       -7,78663
            672            672        143,678       -7,84418
            673            673        144,008       -7,90678
            674            674        144,339       -7,97476
            675            675        144,668       -8,04953
            676            676        144,998       -8,12846
            677            677        145,327       -8,21743
            678            678        145,656       -8,31076
            679            679        145,985       -8,41096
            680            680        146,314        -8,5177
            681            681        146,641       -8,64576
            682            682        146,969       -8,77433
            683            683        147,297       -8,89278
            684            684        147,625       -9,00276
            685            685        147,954       -9,08988
            686            686        148,284        -9,1661
            687            687        148,615       -9,22059
            688            688        148,946       -9,25835
            689            689        149,279       -9,24741
            690            690        149,614       -9,21341
            691            691        149,949       -9,15863
            692            692        150,285       -9,09108
            693            693        150,622       -8,97169
            694            694        150,962       -8,81123
            695            695        151,303       -8,61012
            696            696        151,646       -8,38589
            697            697        151,990       -8,13059
            698            698        152,334       -7,86989
            699            699        152,678       -7,60852
            700            700        153,021       -7,34882
            701            701        153,365        -7,1075
            702            702        153,707       -6,88247
            703            703        154,049       -6,67993
            704            704        154,390       -6,49364
            705            705        154,729       -6,35019
            706            706        155,067         -6,225
            707            707        155,405       -6,12097
            708            708        155,742       -6,03059
            709            709        156,078       -5,95863
            710            710        156,414       -5,89564
            711            711        156,749       -5,84214
            712            712        157,084       -5,79487
            713            713        157,419       -5,76078
            714            714        157,753        -5,7284
            715            715        158,087       -5,69921
            716            716        158,421       -5,67376
            717            717        158,755       -5,65269
            718            718        159,089       -5,63282
            719            719        159,423       -5,61457
            720            720        159,757       -5,59743
            721            721        160,091       -5,58334
            722            722        160,424       -5,57006
            723            723        160,758       -5,55729
            724            724        161,092       -5,54473
            725            725        161,425       -5,53473
            726            726        161,759       -5,52619
            727            727        162,092       -5,51733
            728            728        162,425       -5,50805
            729            729        162,759       -5,49893
            730            730        163,092       -5,48995
            731            731        163,426       -5,48107
            732            732        163,759       -5,47229
            733            733        164,093       -5,46383
            734            734        164,426        -5,4552
            735            735        164,760       -5,44696
            736            736        165,093       -5,43945
            737            737        165,426       -5,43333
            738            738        165,760       -5,42699
            739            739        166,093       -5,42101
            740            740        166,426       -5,41512
            741            741        166,760       -5,40948
            742            742        167,093       -5,40398
            743            743        167,426       -5,39891
            744            744        167,760       -5,39367
            745            745        168,093       -5,38831
            746            746        168,426       -5,38292
            747            747        168,760       -5,37763
            748            748        169,093        -5,3724
            749            749        169,426       -5,36696
            750            750        169,760       -5,36166
            751            751        170,093       -5,35707
            752            752        170,426       -5,35258
            753            753        170,759       -5,34897
            754            754        171,093       -5,34527
            755            755        171,426       -5,34215
            756            756        171,759       -5,33924
            757            757        172,092       -5,33977
            758            758        172,425       -5,34324
            759            759        172,758       -5,34216
            760            760        173,091       -5,33797
            761            761        173,425       -5,33413
            762            762        173,758       -5,33077
            763            763        174,091       -5,32866
            764            764        174,424       -5,32687
            765            765        174,757       -5,32555
            766            766        175,091       -5,32374
            767            767        175,424         -5,322
            768            768        175,757       -5,32061
            769            769        176,090       -5,31815
            770            770        176,423        -5,3161
            771            771        176,756       -5,31409
            772            772        177,090       -5,31208
            773            773        177,423       -5,31026
            774            774        177,756       -5,30809
            775            775        178,089       -5,30606
            776            776        178,422       -5,30384
            777            777        178,755       -5,30612
            778            778        179,088       -5,30736
            779            779        179,422       -5,30624
            780            780        179,755       -5,30461
            781            781        180,088        -5,3035
            782            782        180,421       -5,30238
            783            783        180,754       -5,30105
            784            784        181,087       -5,29963
            785            785        181,420       -5,29827
            786            786        181,754       -5,29686
            787            787        182,087       -5,29546
            788            788        182,420       -5,29406
            789            789        182,753       -5,29251
            790            790        183,086       -5,29107
            791            791        183,419        -5,2911
            792            792        183,752       -5,29283
            793            793        184,085       -5,29271
            794            794        184,419        -5,2911
            795            795        184,752        -5,2905
            796            796        185,085       -5,29164
            797            797        185,418       -5,29202
            798            798        185,751       -5,29156
            799            799        186,084       -5,29146
            800            800        186,417       -5,29132
            801            801        186,750       -5,29105
            802            802        187,083        -5,2904
            803            803        187,416       -5,28977
            804            804        187,750       -5,28923
            805            805        188,083       -5,28868
            806            806        188,416       -5,28654
            807            807        188,749       -5,28481
            808            808        189,082       -5,28274
            809            809        189,415       -5,28062
            810            810        189,748       -5,28314
            811            811        190,081       -5,28458
            812            812        190,415       -5,28492
            813            813        190,748       -5,28489
            814            814        191,081       -5,28536
            815            815        191,414       -5,28578
            816            816        191,747       -5,28611
            817            817        192,080       -5,28635
            818            818        192,413        -5,2885
            819            819        192,746        -5,2936
            820            820        193,079       -5,29697
            821            821        193,412       -5,29651
            822            822        193,745       -5,29569
            823            823        194,078       -5,29503
            824            824        194,411       -5,29451
            825            825        194,744       -5,29409
            826            826        195,077        -5,2938
            827            827        195,411       -5,29343
            828            828        195,744       -5,29314
            829            829        196,077       -5,29295
            830            830        196,410        -5,2929
            831            831        196,743       -5,29273
            832            832        197,076       -5,29248
            833            833        197,409       -5,29215
            834            834        197,742        -5,2918
            835            835        198,075       -5,29145
            836            836        198,409       -5,29087
            837            837        198,742       -5,28988
            838            838        199,072       -5,33973
            839            839        199,400       -5,44321
            840            840        199,731       -5,49476
            841            841        199,401       -5,42794
            842            842        199,089       -4,99304
            843            843        198,787       -4,35689
            844            844        198,494       -3,54813
            845            845        198,204       -2,65591
            846            846        197,917        -1,7063
            847            847        197,628      -0,791588
            848            848        197,336      0,0617344
            849            849        197,042        0,86514
            850            850        196,741        1,53361
            851            851        196,437        2,13345
            852            852        196,129        2,65771
            853            853        195,818        3,13229
            854            854        195,503         3,5032
            855            855        195,185        3,82975
            856            856        194,865         4,1103
            857            857        194,544        4,36117
            858            858        194,219        4,55417
            859            859        193,894        4,72374
            860            860        193,567         4,8683
            861            861        193,240        4,99717
            862            862        192,911        5,09633
            863            863        192,582        5,18359
            864            864        192,252        5,25862
            865            865        191,922        5,32621
            866            866        191,590        5,37788
            867            867        191,259        5,42289
            868            868        190,927        5,46145
            869            869        190,595        5,49595
            870            870        190,263        5,52182
            871            871        189,931        5,54563
            872            872        189,598        5,56651
            873            873        189,265        5,58541
            874            874        188,932        5,60031
            875            875        188,599        5,61408
            876            876        188,266        5,62606
            877            877        187,933        5,63673
            878            878        187,600        5,64474
            879            879        187,267        5,65209
            880            880        186,934        5,65897
            881            881        186,600        5,66489
            882            882        186,267        5,66853
            883            883        185,933        5,67204
            884            884        185,600        5,67489
            885            885        185,266         5,6772
            886            886        184,933        5,67814
            887            887        184,599        5,67928
            888            888        184,266        5,68018
            889            889        183,932        5,68107
            890            890        183,599        5,68143
            891            891        183,265         5,6818
            892            892        182,932          5,682
            893            893        182,598        5,68205
            894            894        182,264        5,68172
            895            895        181,931        5,68121
            896            896        181,597        5,68036
            897            897        181,263         5,6791
            898            898        180,930        5,67741
            899            899        180,596        5,67579
            900            900        180,262        5,67404
            901            901        179,929        5,67217
            902            902        179,595        5,66966
            903            903        179,261        5,66729
            904            904        178,928        5,66486
            905            905        178,594        5,66232
            906            906        178,260        5,65929
            907            907        177,926        5,65636
            908            908        177,593        5,65339
            909            909        177,259        5,65038
            910            910        176,925        5,64718
            911            911        176,591        5,64411
            912            912        176,258        5,64111
            913            913        175,924        5,63815
            914            914        175,590        5,63532
            915            915        175,257        5,63249
            916            916        174,923        5,62976
            917            917        174,589        5,62708
            918            918        174,255         5,6246
            919            919        173,922        5,62213
            920            920        173,588        5,61971
            921            921        173,254        5,61735
            922            922        172,921        5,61524
            923            923        172,587         5,6131
            924            924        172,253        5,61094
            925            925        171,920        5,60886
            926            926        171,586        5,60738
            927            927        171,252        5,60727
            928            928        170,919        5,60719
            929            929        170,585        5,60506
            930            930        170,251        5,60165
            931            931        169,917        5,59861
            932            932        169,584        5,60125
            933            933        169,251        5,61476
            934            934        168,917        5,61457
            935            935        168,584        5,60945
            936            936        168,250        5,60386
            937            937        167,916        5,59832
            938            938        167,582         5,5942
            939            939        167,248        5,59003
            940            940        166,914        5,58552
            941            941        166,581        5,58105
            942            942        166,247        5,57677
            943            943        165,913        5,57254
            944            944        165,579        5,56835
            945            945        165,246        5,56405
            946            946        164,912        5,55994
            947            947        164,578        5,55623
            948            948        164,244        5,55223
            949            949        163,910        5,54579
            950            950        163,576        5,54012
            951            951        163,243        5,53482
            952            952        162,909        5,52949
            953            953        162,575        5,52401
            954            954        162,241         5,5195
            955            955        161,907        5,51488
            956            956        161,574        5,51015
            957            957        161,240        5,50547
            958            958        160,906        5,50106
            959            959        160,572        5,49657
            960            960        160,238        5,49208
            961            961        159,905        5,48761
            962            962        159,571        5,48323
            963            963        159,237        5,47895
            964            964        158,903        5,47477
            965            965        158,569        5,47071
            966            966        158,236        5,46682
            967            967        157,902        5,46295
            968            968        157,568        5,45919
            969            969        157,234        5,45552
            970            970        156,901        5,45211
            971            971        156,567        5,44871
            972            972        156,233        5,44548
            973            973        155,899        5,44228
            974            974        155,566        5,43944
            975            975        155,232        5,43662
            976            976        154,898          5,434
            977            977        154,565        5,43152
            978            978        154,231        5,42951
            979            979        153,897        5,42738
            980            980        153,564        5,42533
            981            981        153,230        5,42335
            982            982        152,896        5,42178
            983            983        152,563        5,42016
            984            984        152,229        5,41868
            985            985        151,895        5,41734
            986            986        151,562        5,41612
            987            987        151,228        5,41503
            988            988        150,894        5,41462
            989            989        150,561         5,4148
            990            990        150,227        5,41533
            991            991        149,894        5,41534
            992            992        149,560        5,41529
            993            993        149,226        5,41528
            994            994        148,893        5,41498
            995            995        148,559         5,4147
            996            996        148,225        5,41438
            997            997        147,892        5,41407
            998            998        147,558        5,41373
            999            999        147,225        5,41344
           1000           1000        146,891        5,41312
           1001           1001        146,557        5,41277
           1002           1002        146,224        5,41222
           1003           1003        145,890        5,41152
           1004           1004        145,557        5,41075
           1005           1005        145,223        5,40992
           1006           1006        144,889        5,40853
           1007           1007        144,556        5,40735
           1008           1008        144,222        5,40618
           1009           1009        143,888        5,40505
           1010           1010        143,555        5,40401
           1011           1011        143,221        5,40312
           1012           1012        142,887        5,40229
           1013           1013        142,554        5,40177
           1014           1014        142,220        5,40173
           1015           1015        141,887         5,4022
           1016           1016        141,553        5,40412
           1017           1017        141,219        5,40654
           1018           1018        140,886        5,40955
           1019           1019        140,553        5,41269
           1020           1020        140,219         5,4161
           1021           1021        139,886        5,41972
           1022           1022        139,552        5,42378
           1023           1023        139,219        5,42772
           1024           1024        138,885        5,43162
           1025           1025        138,552        5,43551
           1026           1026        138,218        5,43968
           1027           1027        137,885        5,44381
           1028           1028        137,551        5,44791
           1029           1029        137,218        5,45191
           1030           1030        136,885        5,45575
           1031           1031        136,551        5,45953
           1032           1032        136,218        5,46323
           1033           1033        135,884        5,46662
           1034           1034        135,551        5,46932
           1035           1035        135,217        5,47161
           1036           1036        134,884        5,47333
           1037           1037        134,550        5,47464
           1038           1038        134,216         5,4744
           1039           1039        133,883        5,47482
           1040           1040        133,549        5,47517
           1041           1041        133,216        5,47506
           1042           1042        132,882        5,47516
           1043           1043        132,548        5,47416
           1044           1044        132,215        5,47241
           1045           1045        131,881        5,47079
           1046           1046        131,547        5,46844
           1047           1047        131,214         5,4663
           1048           1048        130,880         5,4642
           1049           1049        130,546        5,46221
           1050           1050        130,213        5,46015
           1051           1051        129,879         5,4582
           1052           1052        129,545        5,45634
           1053           1053        129,211        5,45457
           1054           1054        128,878        5,45308
           1055           1055        128,544        5,45149
           1056           1056        128,210        5,44995
           1057           1057        127,877        5,44852
           1058           1058        127,543        5,44709
           1059           1059        127,209        5,44587
           1060           1060        126,876        5,44525
           1061           1061        126,542        5,44495
           1062           1062        126,209        5,44459
           1063           1063        125,875        5,44406
           1064           1064        125,541        5,44366
           1065           1065        125,208        5,44348
           1066           1066        124,874        5,44258
           1067           1067        124,540        5,44216
           1068           1068        124,207        5,44318
           1069           1069        123,873        5,44562
           1070           1070        123,540         5,4533
           1071           1071        123,207        5,46236
           1072           1072        122,873        5,46319
           1073           1073        122,539        5,46212
           1074           1074        122,206        5,46029
           1075           1075        121,872          5,459
           1076           1076        121,538        5,45786
           1077           1077        121,205        5,45672
           1078           1078        120,871        5,45567
           1079           1079        120,537        5,45465
           1080           1080        120,204        5,45366
           1081           1081        119,870        5,45267
           1082           1082        119,536        5,45177
           1083           1083        119,203        5,45072
           1084           1084        118,869        5,44952
           1085           1085        118,535        5,44823
           1086           1086        118,202        5,44686
           1087           1087        117,868        5,44559
           1088           1088        117,534        5,44436
           1089           1089        117,201         5,4431
           1090           1090        116,867        5,44221
           1091           1091        116,534        5,44151
           1092           1092        116,200        5,44132
           1093           1093        115,866        5,44088
           1094           1094        115,533        5,44063
           1095           1095        115,199        5,44009
           1096           1096        114,865        5,43943
           1097           1097        114,532        5,43888
           1098           1098        114,198        5,43743
           1099           1099        113,864        5,43605
           1100           1100        113,531        5,43393
           1101           1101        113,197        5,43129
           1102           1102        112,863         5,4274
           1103           1103        112,529        5,42407
           1104           1104        112,196        5,42069
           1105           1105        111,862        5,41751
           1106           1106        111,528        5,41501
           1107           1107        111,195        5,41203
           1108           1108        110,861        5,40908
           1109           1109        110,527        5,40627
           1110           1110        110,193        5,40322
           1111           1111        109,860        5,40015
           1112           1112        109,526        5,39708
           1113           1113        109,192         5,3942
           1114           1114        108,858        5,39046
           1115           1115        108,525        5,38707
           1116           1116        108,191         5,3838
           1117           1117        107,857        5,38057
           1118           1118        107,523        5,37747
           1119           1119        107,190        5,37452
           1120           1120        106,856        5,37169
           1121           1121        106,522        5,36875
           1122           1122        106,189        5,36661
           1123           1123        105,855        5,36488
           1124           1124        105,521        5,36381
           1125           1125        105,188        5,36327
           1126           1126        104,854        5,36388
           1127           1127        104,520        5,36429
           1128           1128        104,187        5,36509
           1129           1129        103,853        5,36629
           1130           1130        103,520        5,36781
           1131           1131        103,186        5,36924
           1132           1132        102,852        5,37069
           1133           1133        102,519        5,37202
           1134           1134        102,185        5,37374
           1135           1135        101,852        5,37532
           1136           1136        101,518        5,37619
           1137           1137        101,185        5,37568
           1138           1138        100,851        5,37517
           1139           1139        100,517        5,37504
           1140           1140        100,184        5,37561
           1141           1141         99,850        5,37666
           1142           1142         99,516        5,37766
           1143           1143         99,183        5,37829
           1144           1144         98,849          5,379
           1145           1145         98,516        5,37985
           1146           1146         98,182        5,38008
           1147           1147         97,848         5,3804
           1148           1148         97,515        5,38171
           1149           1149         97,181        5,38381
           1150           1150         96,848        5,39376
           1151           1151         96,515        5,39844
           1152           1152         96,181        5,39922
           1153           1153         95,847        5,39888
           1154           1154         95,514        5,39777
           1155           1155         95,180        5,39685
           1156           1156         94,846        5,39578
           1157           1157         94,513        5,39436
           1158           1158         94,179        5,39142
           1159           1159         93,845        5,38824
           1160           1160         93,511         5,3843
           1161           1161         93,178        5,37974
           1162           1162         92,844          5,374
           1163           1163         92,510        5,36713
           1164           1164         92,176        5,35785
           1165           1165         91,842        5,34549
           1166           1166         91,508        5,33835
           1167           1167         91,174        5,33181
           1168           1168         90,840        5,32558
           1169           1169         90,507        5,31921
           1170           1170         90,173        5,31403
           1171           1171         89,839        5,30964
           1172           1172         89,505        5,30519
           1173           1173         89,172        5,30143
           1174           1174         88,838        5,29867
           1175           1175         88,504        5,29637
           1176           1176         88,170        5,29557
           1177           1177         87,837        5,29518
           1178           1178         87,503        5,29603
           1179           1179         87,170        5,29714
           1180           1180         86,836        5,29888
           1181           1181         86,502        5,30103
           1182           1182         86,169        5,30416
           1183           1183         85,835        5,30564
           1184           1184         85,502        5,29812
           1185           1185         85,167        5,27949
           1186           1186         84,834        5,28473
           1187           1187         84,500         5,2925
           1188           1188         84,167        5,29957
           1189           1189         83,834        5,30646
           1190           1190         83,500        5,31295
           1191           1191         83,167        5,31949
           1192           1192         82,833        5,32597
           1193           1193         82,500        5,33213
           1194           1194         82,166        5,33737
           1195           1195         81,833        5,34289
           1196           1196         81,500        5,34802
           1197           1197         81,166        5,35317
           1198           1198         80,833        5,35758
           1199           1199         80,499        5,36217
           1200           1200         80,166        5,36669
           1201           1201         79,832        5,37084
           1202           1202         79,498        5,37394
           1203           1203         79,165        5,37757
           1204           1204         78,831        5,38075
           1205           1205         78,498        5,38317
           1206           1206         78,164        5,38572
           1207           1207         77,831        5,38837
           1208           1208         77,497        5,39091
           1209           1209         77,164        5,39347
           1210           1210         76,830        5,39524
           1211           1211         76,496        5,39715
           1212           1212         76,163        5,39893
           1213           1213         75,829        5,40057
           1214           1214         75,496        5,40149
           1215           1215         75,162        5,40259
           1216           1216         74,828        5,40328
           1217           1217         74,495        5,40388
           1218           1218         74,161        5,40392
           1219           1219         73,828        5,40416
           1220           1220         73,494        5,40429
           1221           1221         73,160        5,40435
           1222           1222         72,827        5,40422
           1223           1223         72,493        5,40427
           1224           1224         72,159        5,40448
           1225           1225         71,826        5,40476
           1226           1226         71,492        5,40524
           1227           1227         71,158        5,40569
           1228           1228         70,825        5,40615
           1229           1229         70,491        5,40658
           1230           1230         70,158        5,40701
           1231           1231         69,824        5,40721
           1232           1232         69,490        5,40725
           1233           1233         69,157        5,40729
           1234           1234         68,823        5,40695
           1235           1235         68,489        5,40675
           1236           1236         68,156        5,40656
           1237           1237         67,822        5,40636
           1238           1238         67,488        5,40614
           1239           1239         67,155        5,40597
           1240           1240         66,821        5,40585
           1241           1241         66,487        5,40571
           1242           1242         66,154        5,40545
           1243           1243         65,820        5,40527
           1244           1244         65,487        5,40513
           1245           1245         65,153        5,40502
           1246           1246         64,819         5,4051
           1247           1247         64,486         5,4052
           1248           1248         64,152        5,40522
           1249           1249         63,818        5,40514
           1250           1250         63,485        5,40521
           1251           1251         63,151        5,40516
           1252           1252         62,817        5,40499
           1253           1253         62,484        5,40454
           1254           1254         62,150        5,40321
           1255           1255         61,816        5,40195
           1256           1256         61,483        5,40042
           1257           1257         61,149         5,3982
           1258           1258         60,815        5,39555
           1259           1259         60,481        5,39258
           1260           1260         60,148        5,38918
           1261           1261         59,814        5,38505
           1262           1262         59,480        5,37498
           1263           1263         59,146        5,36945
           1264           1264         58,813        5,36453
           1265           1265         58,479        5,35964
           1266           1266         58,145        5,35389
           1267           1267         57,811        5,34688
           1268           1268         57,477         5,3385
           1269           1269         57,143        5,32898
           1270           1270         56,809        5,31731
           1271           1271         56,475        5,30467
           1272           1272         56,141        5,29042
           1273           1273         55,807        5,27492
           1274           1274         55,473        5,25596
           1275           1275         55,139        5,23602
           1276           1276         54,805        5,21462
           1277           1277         54,471        5,19234
           1278           1278         54,136        5,16769
           1279           1279         53,802        5,14199
           1280           1280         53,468         5,1152
           1281           1281         53,133        5,08821
           1282           1282         52,799        5,05999
           1283           1283         52,465        5,03167
           1284           1284         52,130         5,0025
           1285           1285         51,796        4,97183
           1286           1286         51,462        4,94057
           1287           1287         51,127        4,91171
           1288           1288         50,793        4,88982
           1289           1289         50,459        4,87366
           1290           1290         50,125        4,84552
           1291           1291         49,790        4,81467
           1292           1292         49,456        4,78479
           1293           1293         49,122        4,75639
           1294           1294         48,787        4,73084
           1295           1295         48,453        4,70353
           1296           1296         48,118        4,65935
           1297           1297         47,783         4,5893
           1298           1298         47,449        4,56842
           1299           1299         47,115        4,55621
           1300           1300         46,781        4,54509
           1301           1301         46,447        4,53347
           1302           1302         46,113        4,51871
           1303           1303         45,779        4,50359
           1304           1304         45,445         4,4886
           1305           1305         45,111        4,47345
           1306           1306         44,777         4,4594
           1307           1307         44,444        4,44559
           1308           1308         44,110        4,43238
           1309           1309         43,776        4,41992
           1310           1310         43,442        4,40972
           1311           1311         43,108        4,39966
           1312           1312         42,774        4,39078
           1313           1313         42,440        4,38201
           1314           1314         42,107        4,37449
           1315           1315         41,773        4,36734
           1316           1316         41,439        4,36088
           1317           1317         41,106        4,35498
           1318           1318         40,772        4,35041
           1319           1319         40,438         4,3467
           1320           1320         40,104        4,34354
           1321           1321         39,771         4,3409
           1322           1322         39,437        4,33856
           1323           1323         39,104        4,33618
           1324           1324         38,770         4,3347
           1325           1325         38,436        4,33492
           1326           1326         38,103        4,33442
           1327           1327         37,769         4,3364
           1328           1328         37,436        4,34304
           1329           1329         37,102        4,34817
           1330           1330         36,769         4,3383
           1331           1331         36,435        4,33135
           1332           1332         36,101        4,32581
           1333           1333         35,767        4,32042
           1334           1334         35,434        4,31741
           1335           1335         35,100        4,31759
           1336           1336         34,767        4,31747
           1337           1337         34,433        4,31521
           1338           1338         34,099        4,31146
           1339           1339         33,766        4,30791
           1340           1340         33,432        4,30443
           1341           1341         33,098        4,30163
           1342           1342         32,765          4,301
           1343           1343         32,431        4,29989
           1344           1344         32,098        4,29891
           1345           1345         31,764        4,29794
           1346           1346         31,430        4,29742
           1347           1347         31,097        4,29672
           1348           1348         30,763        4,29608
           1349           1349         30,430        4,29556
           1350           1350         30,096        4,29524
           1351           1351         29,763        4,29497
           1352           1352         29,429        4,29483
           1353           1353         29,095         4,2947
           1354           1354         28,762        4,29492
           1355           1355         28,428          4,295
           1356           1356         28,095        4,29523
           1357           1357         27,761        4,29555
           1358           1358         27,428        4,29592
           1359           1359         27,094        4,29627
           1360           1360         26,760        4,29694
           1361           1361         26,427        4,29819
           1362           1362         26,094        4,35148
           1363           1363         25,762        4,38963
           1364           1364         25,428        4,39169
           1365           1365         25,094        4,38359
           1366           1366         24,761        4,37677
           1367           1367         24,427        4,37137
           1368           1368         24,093        4,36803
           1369           1369         23,760        4,36613
           1370           1370         23,426         4,3667
           1371           1371         23,093        4,36762
           1372           1372         22,759         4,3683
           1373           1373         22,425        4,36687
           1374           1374         22,092        4,36454
           1375           1375         21,758        4,36256
           1376           1376         21,425        4,36058
           1377           1377         21,091        4,35903
           1378           1378         20,757        4,35563
           1379           1379         20,424          4,352
           1380           1380         20,090        4,34867
           1381           1381         19,756        4,34553
           1382           1382         19,423        4,34263
           1383           1383         19,089        4,33939
           1384           1384         18,755        4,33598
           1385           1385         18,422        4,33351
           1386           1386         18,088        4,33205
           1387           1387         17,755         4,3305
           1388           1388         17,421        4,32911
           1389           1389         17,087        4,32794
           1390           1390         16,754        4,32717
           1391           1391         16,420         4,3262
           1392           1392         16,087        4,32518
           1393           1393         15,753        4,32411
           1394           1394         15,419        4,32397
           1395           1395         15,086        4,32482
           1396           1396         14,752         4,3258
           1397           1397         14,419        4,32675
           1398           1398         14,085        4,32831
           1399           1399         13,752        4,32955
           1400           1400         13,418        4,33076
           1401           1401         13,085        4,33195
           1402           1402         12,751          4,332
           1403           1403         12,417        4,33242
           1404           1404         12,084        4,33281
           1405           1405         11,750        4,33309
           1406           1406         11,417        4,33278
           1407           1407         11,083        4,33254
           1408           1408         10,750        4,33227
           1409           1409         10,416        4,33206
           1410           1410         10,082        4,33147
           1411           1411          9,749        4,33107
           1412           1412          9,415        4,33063
           1413           1413          9,082        4,33011
           1414           1414          8,748        4,32965
           1415           1415          8,415        4,32921
           1416           1416          8,081        4,32884
           1417           1417          7,747        4,32845
           1418           1418          7,414        4,32796
           1419           1419          7,080        4,32746
           1420           1420          6,747        4,32702
           1421           1421          6,413         4,3266
           1422           1422          6,079        4,32626
           1423           1423          5,746        4,32606
           1424           1424          5,412        4,32584
           1425           1425          5,079        4,32563
           1426           1426          4,745         4,3258
           1427           1427          4,412        4,32602
           1428           1428          4,078        4,32625
           1429           1429          3,744        4,32651
           1430           1430          3,411          4,327
           1431           1431          3,077        4,32741
           1432           1432          2,744        4,32776
           1433           1433          2,410        4,32806
           1434           1434          2,077        4,32867
           1435           1435          1,743        4,32931
           1436           1436          1,409        4,33002
           1437           1437          1,076         4,3308
           1438           1438          0,742        4,33176
           1439           1439          0,409        4,33251
           1440           1440     75,220e-03        4,33327
           1441           1441         -0,258        4,33401
           1442           1442         -0,592         4,3347
           1443           1443         -0,925        4,33548
           1444           1444         -1,259        4,33618
           1445           1445         -1,593        4,33687
           1446           1446         -1,926        4,33757
           1447           1447         -2,260        4,33805
           1448           1448         -2,593        4,33844
           1449           1449         -2,927        4,33893
           1450           1450         -3,260        4,33863
           1451           1451         -3,594        4,33847
           1452           1452         -3,928        4,33795
           1453           1453         -4,261        4,33724
           1454           1454         -4,595        4,31916
           1455           1455         -4,929        4,31588
           1456           1456         -5,262         4,3183
           1457           1457         -5,596        4,32101
           1458           1458         -5,929         4,3237
           1459           1459         -6,263        4,32631
           1460           1460         -6,596        4,32888
           1461           1461         -6,930        4,33145
           1462           1462         -7,263        4,33378
           1463           1463         -7,597        4,33618
           1464           1464         -7,931        4,33859
           1465           1465         -8,264        4,34093
           1466           1466         -8,598        4,34316
           1467           1467         -8,931         4,3456
           1468           1468         -9,265        4,34812
           1469           1469         -9,598        4,35077
           1470           1470         -9,932        4,35367
           1471           1471        -10,265         4,3565
           1472           1472        -10,599         4,3594
           1473           1473        -10,932        4,36238
           1474           1474        -11,266        4,36522
           1475           1475        -11,599        4,36826
           1476           1476        -11,933        4,37172
           1477           1477        -12,266        4,37529
           1478           1478        -12,600        4,37522
           1479           1479        -12,934        4,37625
           1480           1480        -13,267         4,3784
           1481           1481        -13,601        4,38101
           1482           1482        -13,934        4,38424
           1483           1483        -14,268        4,38705
           1484           1484        -14,601         4,3899
           1485           1485        -14,935        4,39292
           1486           1486        -15,268        4,39601
           1487           1487        -15,602        4,39899
           1488           1488        -15,935        4,40223
           1489           1489        -16,269        4,40559
           1490           1490        -16,602        4,40744
           1491           1491        -16,936        4,40982
           1492           1492        -17,269        4,41234
           1493           1493        -17,603        4,41493
           1494           1494        -17,937        4,41758
           1495           1495        -18,270        4,42025
           1496           1496        -18,604        4,42304
           1497           1497        -18,937        4,42598
           1498           1498        -19,271        4,42934
           1499           1499        -19,604        4,43242
           1500           1500        -19,938         4,4354
           1501           1501        -20,271        4,43841
           1502           1502        -20,605        4,44146
           1503           1503        -20,938         4,4445
           1504           1504        -21,272        4,44755
           1505           1505        -21,605        4,45064
           1506           1506        -21,939        4,45364
           1507           1507        -22,272        4,45681
           1508           1508        -22,606        4,46006
           1509           1509        -22,940         4,4633
           1510           1510        -23,273        4,46639
           1511           1511        -23,607        4,46952
           1512           1512        -23,940        4,47266
           1513           1513        -24,274        4,47584
           1514           1514        -24,607        4,47905
           1515           1515        -24,941        4,48228
           1516           1516        -25,274        4,48556
           1517           1517        -25,608        4,48887
           1518           1518        -25,941        4,49275
           1519           1519        -26,275        4,49619
           1520           1520        -26,608        4,49945
           1521           1521        -26,942        4,50365
           1522           1522        -27,275        4,50819
           1523           1523        -27,609        4,51224
           1524           1524        -27,942        4,51614
           1525           1525        -28,276        4,51968
           1526           1526        -28,609        4,52315
           1527           1527        -28,943        4,52693
           1528           1528        -29,276        4,53072
           1529           1529        -29,610        4,53437
           1530           1530        -29,944        4,53831
           1531           1531        -30,277        4,54222
           1532           1532        -30,611        4,54571
           1533           1533        -30,944        4,54813
           1534           1534        -31,278        4,55071
           1535           1535        -31,611        4,55352
           1536           1536        -31,945        4,55632
           1537           1537        -32,278         4,5591
           1538           1538        -32,612        4,56202
           1539           1539        -32,945        4,56474
           1540           1540        -33,279        4,56751
           1541           1541        -33,612        4,57042
           1542           1542        -33,946        4,57296
           1543           1543        -34,279        4,57548
           1544           1544        -34,613         4,5789
           1545           1545        -34,946        4,58321
           1546           1546        -35,280        4,58805
           1547           1547        -35,614         4,5926
           1548           1548        -35,947        4,59721
           1549           1549        -36,281        4,60216
           1550           1550        -36,614        4,60647
           1551           1551        -36,948        4,61086
           1552           1552        -37,281        4,61528
           1553           1553        -37,615        4,62022
           1554           1554        -37,948        4,62387
           1555           1555        -38,282        4,62608
           1556           1556        -38,615        4,62957
           1557           1557        -38,949        4,63449
           1558           1558        -39,282        4,63943
           1559           1559        -39,616        4,64365
           1560           1560        -39,949        4,64768
           1561           1561        -40,283        4,65359
           1562           1562        -40,616        4,65822
           1563           1563        -40,950        4,66289
           1564           1564        -41,283        4,66774
           1565           1565        -41,617        4,67356
           1566           1566        -41,950        4,67943
           1567           1567        -42,284        4,68419
           1568           1568        -42,617        4,68884
           1569           1569        -42,951        4,69418
           1570           1570        -43,284        4,70089
           1571           1571        -43,618        4,70716
           1572           1572        -43,951        4,71333
           1573           1573        -44,285        4,71931
           1574           1574        -44,618        4,72545
           1575           1575        -44,952        4,72921
           1576           1576        -45,285        4,73295
           1577           1577        -45,619        4,73692
           1578           1578        -45,952          4,742
           1579           1579        -46,286        4,74674
           1580           1580        -46,619        4,75162
           1581           1581        -46,953        4,75575
           1582           1582        -47,286        4,75982
           1583           1583        -47,620        4,76495
           1584           1584        -47,954          4,771
           1585           1585        -48,287        4,77724
           1586           1586        -48,621        4,78197
           1587           1587        -48,954         4,7871
           1588           1588        -49,288        4,79263
           1589           1589        -49,621        4,79939
           1590           1590        -49,955        4,80632
           1591           1591        -50,288        4,81286
           1592           1592        -50,622        4,82009
           1593           1593        -50,955        4,83009
           1594           1594        -51,289        4,83198
           1595           1595        -51,622        4,83724
           1596           1596        -51,956        4,84273
           1597           1597        -52,289         4,8479
           1598           1598        -52,623        4,86014
           1599           1599        -52,956         4,8672
           1600           1600        -53,290        4,87141
           1601           1601        -53,623        4,87717
           1602           1602        -53,957        4,88343
           1603           1603        -54,290         4,8893
           1604           1604        -54,624        4,89497
           1605           1605        -54,957         4,9004
           1606           1606        -55,291        4,90597
           1607           1607        -55,624        4,91087
           1608           1608        -55,958        4,91562
           1609           1609        -56,291        4,92254
           1610           1610        -56,625        4,92796
           1611           1611        -56,958        4,93401
           1612           1612        -57,292        4,94276
           1613           1613        -57,625         4,9519
           1614           1614        -57,959         4,9534
           1615           1615        -58,292        4,95568
           1616           1616        -58,626        4,96018
           1617           1617        -58,959        4,96466
           1618           1618        -59,293        4,96894
           1619           1619        -59,626        4,97302
           1620           1620        -59,960        4,97735
           1621           1621        -60,293        4,98179
           1622           1622        -60,627        4,98546
           1623           1623        -60,961        4,98902
           1624           1624        -61,294        4,99485
           1625           1625        -61,628        5,00128
           1626           1626        -61,961         5,0058
           1627           1627        -62,295        5,00511
           1628           1628        -62,628        5,00417
           1629           1629        -62,962          5,004
           1630           1630        -63,295         5,0062
           1631           1631        -63,629        5,00854
           1632           1632        -63,962        5,01038
           1633           1633        -64,296        5,01114
           1634           1634        -64,630         5,0089
           1635           1635        -64,963        5,00732
           1636           1636        -65,297        5,00392
           1637           1637        -65,630         4,9964
           1638           1638        -65,964        4,99171
           1639           1639        -66,298        4,98432
           1640           1640        -66,631        4,97702
           1641           1641        -66,965         4,9696
           1642           1642        -67,298        4,96026
           1643           1643        -67,632        4,95113
           1644           1644        -67,966        4,94236
           1645           1645        -68,299        4,93135
           1646           1646        -68,633        4,92158
           1647           1647        -68,966        4,91171
           1648           1648        -69,300        4,90062
           1649           1649        -69,634        4,88654
           1650           1650        -69,967        4,87139
           1651           1651        -70,301        4,85913
           1652           1652        -70,635        4,84756
           1653           1653        -70,968        4,83647
           1654           1654        -71,302        4,82576
           1655           1655        -71,635        4,81465
           1656           1656        -71,969         4,8039
           1657           1657        -72,303        4,79369
           1658           1658        -72,636        4,78236
           1659           1659        -72,970         4,7714
           1660           1660        -73,304         4,7605
           1661           1661        -73,637        4,74957
           1662           1662        -73,971        4,73871
           1663           1663        -74,304        4,72785
           1664           1664        -74,638        4,71494
           1665           1665        -74,972        4,69789
           1666           1666        -75,305        4,68767
           1667           1667        -75,639        4,68175
           1668           1668        -75,972        4,67086
           1669           1669        -76,306        4,65917
           1670           1670        -76,640        4,64764
           1671           1671        -76,973        4,63649
           1672           1672        -77,307        4,62418
           1673           1673        -77,640        4,60791
           1674           1674        -77,974        4,59303
           1675           1675        -78,308        4,58331
           1676           1676        -78,641        4,57599
           1677           1677        -78,975         4,5713
           1678           1678        -79,308        4,56003
           1679           1679        -79,642        4,54953
           1680           1680        -79,975        4,55602
           1681           1681        -79,642        4,58659
           1682           1682        -79,308        4,59979
           1683           1683        -78,975        4,58472
           1684           1684        -78,642        4,44943
           1685           1685        -78,310        4,07757
           1686           1686        -77,980        3,52344
           1687           1687        -77,651        2,65827
           1688           1688        -77,323        1,75254
           1689           1689        -76,995       0,853156
           1690           1690        -76,667      -0,021917
           1691           1691        -76,338      -0,787357
           1692           1692        -76,009       -1,48063
           1693           1693        -75,679       -2,09439
           1694           1694        -75,349       -2,65293
           1695           1695        -75,019       -3,10149
           1696           1696        -74,688       -3,48573
           1697           1697        -74,357       -3,82679
           1698           1698        -74,026       -4,13553
           1699           1699        -73,694       -4,36686
           1700           1700        -73,362       -4,56875
           1701           1701        -73,030       -4,73935
           1702           1702        -72,698       -4,89293
           1703           1703        -72,365       -5,00867
           1704           1704        -72,033       -5,10997
           1705           1705        -71,700       -5,19364
           1706           1706        -71,368       -5,27039
           1707           1707        -71,035       -5,32411
           1708           1708        -70,702        -5,3721
           1709           1709        -70,369       -5,41144
           1710           1710        -70,036       -5,44097
           1711           1711        -69,704       -5,46356
           1712           1712        -69,371       -5,48111
           1713           1713        -69,038       -5,49385
           1714           1714        -68,705       -5,50348
           1715           1715        -68,371       -5,50993
           1716           1716        -68,038       -5,51399
           1717           1717        -67,705       -5,51394
           1718           1718        -67,372       -5,51331
           1719           1719        -67,039       -5,51122
           1720           1720        -66,706       -5,50456
           1721           1721        -66,373       -5,49728
           1722           1722        -66,040       -5,49195
           1723           1723        -65,707       -5,48614
           1724           1724        -65,373       -5,47801
           1725           1725        -65,040       -5,46898
           1726           1726        -64,707        -5,4592
           1727           1727        -64,374       -5,44884
           1728           1728        -64,041       -5,43813
           1729           1729        -63,708        -5,4254
           1730           1730        -63,374       -5,41256
           1731           1731        -63,041        -5,4008
           1732           1732        -62,708       -5,38874
           1733           1733        -62,375       -5,37687
           1734           1734        -62,042       -5,36514
           1735           1735        -61,709       -5,35541
           1736           1736        -61,375       -5,34479
           1737           1737        -61,042       -5,33397
           1738           1738        -60,709        -5,3233
           1739           1739        -60,376       -5,31209
           1740           1740        -60,043       -5,30103
           1741           1741        -59,709       -5,28998
           1742           1742        -59,376       -5,27877
           1743           1743        -59,043       -5,26174
           1744           1744        -58,709       -5,20287
           1745           1745        -58,376       -5,11837
           1746           1746        -58,042       -5,08998
           1747           1747        -57,709       -5,10848
           1748           1748        -57,376       -5,11844
           1749           1749        -57,043       -5,12273
           1750           1750        -56,710       -5,12527
           1751           1751        -56,377       -5,11665
           1752           1752        -56,044       -5,10943
           1753           1753        -55,711       -5,10157
           1754           1754        -55,378       -5,09564
           1755           1755        -55,044       -5,08964
           1756           1756        -54,711       -5,08064
           1757           1757        -54,378       -5,07109
           1758           1758        -54,045       -5,06167
           1759           1759        -53,712       -5,05148
           1760           1760        -53,379       -5,04169
           1761           1761        -53,045       -5,03205
           1762           1762        -52,712        -5,0216
           1763           1763        -52,379       -5,01069
           1764           1764        -52,046       -5,00064
           1765           1765        -51,713       -4,99239
           1766           1766        -51,379       -4,98383
           1767           1767        -51,046       -4,97439
           1768           1768        -50,713        -4,9652
           1769           1769        -50,380       -4,95606
           1770           1770        -50,047       -4,94691
           1771           1771        -49,714         -4,937
           1772           1772        -49,380       -4,92748
           1773           1773        -49,047       -4,91735
           1774           1774        -48,714       -4,90624
           1775           1775        -48,381        -4,8987
           1776           1776        -48,048       -4,89008
           1777           1777        -47,714        -4,8801
           1778           1778        -47,381       -4,86906
           1779           1779        -47,048       -4,86224
           1780           1780        -46,715       -4,85512
           1781           1781        -46,382       -4,84483
           1782           1782        -46,048       -4,83196
           1783           1783        -45,715       -4,82589
           1784           1784        -45,382       -4,81903
           1785           1785        -45,049        -4,8111
           1786           1786        -44,716       -4,80263
           1787           1787        -44,383       -4,79412
           1788           1788        -44,049       -4,78578
           1789           1789        -43,716       -4,77745
           1790           1790        -43,383       -4,76921
           1791           1791        -43,050       -4,76115
           1792           1792        -42,717       -4,75269
           1793           1793        -42,383       -4,74475
           1794           1794        -42,050       -4,73778
           1795           1795        -41,717       -4,73088
           1796           1796        -41,384        -4,7237
           1797           1797        -41,051       -4,71647
           1798           1798        -40,718       -4,70898
           1799           1799        -40,384       -4,69904
           1800           1800        -40,051       -4,69024
           1801           1801        -39,718        -4,6845
           1802           1802        -39,385       -4,67788
           1803           1803        -39,052       -4,67112
           1804           1804        -38,719       -4,66439
           1805           1805        -38,385       -4,65738
           1806           1806        -38,052       -4,64982
           1807           1807        -37,719       -4,64327
           1808           1808        -37,386       -4,63653
           1809           1809        -37,053       -4,62995
           1810           1810        -36,719        -4,6234
           1811           1811        -36,386       -4,61713
           1812           1812        -36,053       -4,61086
           1813           1813        -35,720        -4,6044
           1814           1814        -35,387       -4,59805
           1815           1815        -35,054        -4,5917
           1816           1816        -34,720       -4,58465
           1817           1817        -34,387        -4,5779
           1818           1818        -34,054       -4,57205
           1819           1819        -33,721       -4,56375
           1820           1820        -33,388       -4,55603
           1821           1821        -33,055       -4,54993
           1822           1822        -32,721       -4,54542
           1823           1823        -32,388       -4,53862
           1824           1824        -32,055       -4,53113
           1825           1825        -31,722       -4,52494
           1826           1826        -31,389       -4,52017
           1827           1827        -31,056       -4,51593
           1828           1828        -30,722       -4,51053
           1829           1829        -30,389       -4,50374
           1830           1830        -30,056       -4,49749
           1831           1831        -29,723       -4,49208
           1832           1832        -29,390       -4,48732
           1833           1833        -29,057       -4,48276
           1834           1834        -28,723        -4,4781
           1835           1835        -28,390       -4,47388
           1836           1836        -28,057       -4,46803
           1837           1837        -27,724       -4,46243
           1838           1838        -27,391       -4,45686
           1839           1839        -27,058       -4,45129
           1840           1840        -26,724       -4,44539
           1841           1841        -26,391       -4,43963
           1842           1842        -26,058       -4,43397
           1843           1843        -25,725        -4,4284
           1844           1844        -25,392       -4,42302
           1845           1845        -25,058        -4,4177
           1846           1846        -24,725       -4,41264
           1847           1847        -24,392       -4,40744
           1848           1848        -24,059       -4,40242
           1849           1849        -23,726       -4,39731
           1850           1850        -23,393       -4,39211
           1851           1851        -23,059       -4,38684
           1852           1852        -22,726       -4,38147
           1853           1853        -22,393       -4,37607
           1854           1854        -22,060       -4,37059
           1855           1855        -21,727       -4,36509
           1856           1856        -21,394       -4,35964
           1857           1857        -21,060       -4,35424
           1858           1858        -20,727        -4,3489
           1859           1859        -20,394       -4,34371
           1860           1860        -20,061       -4,33881
           1861           1861        -19,728       -4,33396
           1862           1862        -19,395       -4,32919
           1863           1863        -19,061       -4,32441
           1864           1864        -18,728       -4,32009
           1865           1865        -18,395       -4,31566
           1866           1866        -18,062       -4,31134
           1867           1867        -17,729       -4,30702
           1868           1868        -17,396       -4,30309
           1869           1869        -17,062       -4,29894
           1870           1870        -16,729       -4,29477
           1871           1871        -16,396       -4,29091
           1872           1872        -16,063       -4,28617
           1873           1873        -15,730        -4,2814
           1874           1874        -15,397       -4,27675
           1875           1875        -15,063       -4,27214
           1876           1876        -14,730       -4,26771
           1877           1877        -14,397       -4,26326
           1878           1878        -14,064       -4,25883
           1879           1879        -13,731       -4,25444
           1880           1880        -13,398       -4,25054
           1881           1881        -13,064       -4,24644
           1882           1882        -12,731       -4,24228
           1883           1883        -12,398       -4,23812
           1884           1884        -12,065        -4,2343
           1885           1885        -11,732       -4,23021
           1886           1886        -11,399       -4,22614
           1887           1887        -11,066       -4,22209
           1888           1888        -10,732       -4,21806
           1889           1889        -10,399       -4,21404
           1890           1890        -10,066       -4,20995
           1891           1891         -9,733       -4,20575
           1892           1892         -9,400       -4,20245
           1893           1893         -9,067       -4,19997
           1894           1894         -8,733       -4,19766
           1895           1895         -8,400       -4,19521
           1896           1896         -8,067       -4,19334
           1897           1897         -7,734        -4,1903
           1898           1898         -7,401        -4,1852
           1899           1899         -7,068       -4,18076
           1900           1900         -6,735       -4,17648
           1901           1901         -6,401       -4,17276
           1902           1902         -6,068       -4,17002
           1903           1903         -5,735       -4,16687
           1904           1904         -5,402       -4,16397
           1905           1905         -5,069       -4,16111
           1906           1906         -4,736       -4,15796
           1907           1907         -4,402       -4,15421
           1908           1908         -4,069       -4,15167
           1909           1909         -3,736       -4,14896
           1910           1910         -3,403       -4,14629
           1911           1911         -3,070       -4,14264
           1912           1912         -2,737        -4,1396
           1913           1913         -2,404       -4,13656
           1914           1914         -2,070       -4,13408
           1915           1915         -1,737       -4,13164
           1916           1916         -1,404       -4,12867
           1917           1917         -1,071       -4,12576
           1918           1918         -0,738       -4,12287
           1919           1919         -0,405       -4,12005
           1920           1920    -71,469e-03       -4,11717
           1921           1921          0,262       -4,11434
           1922           1922          0,595       -4,11151
           1923           1923          0,928       -4,10873
           1924           1924          1,261       -4,10621
           1925           1925          1,594       -4,10363
           1926           1926          1,927       -4,10116
           1927           1927          2,261       -4,09875
           1928           1928          2,594       -4,09647
           1929           1929          2,927       -4,09414
           1930           1930          3,260       -4,09183
           1931           1931          3,593       -4,08957
           1932           1932          3,926       -4,08722
           1933           1933          4,259       -4,08493
           1934           1934          4,593       -4,08274
           1935           1935          4,926       -4,08058
           1936           1936          5,259       -4,07848
           1937           1937          5,592       -4,07646
           1938           1938          5,925       -4,07454
           1939           1939          6,258       -4,07264
           1940           1940          6,591       -4,07104
           1941           1941          6,925       -4,06924
           1942           1942          7,258       -4,06736
           1943           1943          7,591       -4,06543
           1944           1944          7,924        -4,0636
           1945           1945          8,257       -4,06184
           1946           1946          8,590       -4,06008
           1947           1947          8,923       -4,05832
           1948           1948          9,257       -4,05666
           1949           1949          9,590       -4,05494
           1950           1950          9,923       -4,05314
           1951           1951         10,256       -4,05127
           1952           1952         10,589       -4,04938
           1953           1953         10,922       -4,04747
           1954           1954         11,255       -4,04548
           1955           1955         11,589       -4,04368
           1956           1956         11,922       -4,04186
           1957           1957         12,255       -4,04004
           1958           1958         12,588       -4,03825
           1959           1959         12,921       -4,03645
           1960           1960         13,254       -4,03459
           1961           1961         13,587       -4,03268
           1962           1962         13,921        -4,0308
           1963           1963         14,254       -4,02899
           1964           1964         14,587       -4,02693
           1965           1965         14,920        -4,0251
           1966           1966         15,253       -4,02335
           1967           1967         15,586       -4,02159
           1968           1968         15,919       -4,02012
           1969           1969         16,253       -4,01862
           1970           1970         16,586       -4,01724
           1971           1971         16,919       -4,01596
           1972           1972         17,252       -4,01505
           1973           1973         17,585       -4,01399
           1974           1974         17,918       -4,01283
           1975           1975         18,251       -4,01165
           1976           1976         18,585       -4,01064
           1977           1977         18,918       -4,00959
           1978           1978         19,251       -4,00853
           1979           1979         19,584       -4,00756
           1980           1980         19,917       -4,00682
           1981           1981         20,250       -4,00608
           1982           1982         20,583        -4,0054
           1983           1983         20,916        -4,0047
           1984           1984         21,250       -4,00453
           1985           1985         21,583       -4,00418
           1986           1986         21,916       -4,00371
           1987           1987         22,249       -4,00325
           1988           1988         22,582       -4,00309
           1989           1989         22,915       -4,00295
           1990           1990         23,248       -4,00251
           1991           1991         23,581       -4,00168
           1992           1992         23,914       -4,00301
           1993           1993         24,248       -4,00349
           1994           1994         24,581       -4,00383
           1995           1995         24,914        -4,0042
           1996           1996         25,247       -4,00478
           1997           1997         25,580        -4,0054
           1998           1998         25,913       -4,00611
           1999           1999         26,246       -4,00683
           2000           2000         26,579       -4,00785
           2001           2001         26,912       -4,00878
           2002           2002         27,245       -4,00976
           2003           2003         27,578       -4,01078
           2004           2004         27,912         -4,012
           2005           2005         28,245       -4,01323
           2006           2006         28,578       -4,01455
           2007           2007         28,911       -4,01597
           2008           2008         29,244       -4,01751
           2009           2009         29,577        -4,0188
           2010           2010         29,910       -4,02001
           2011           2011         30,243       -4,02116
           2012           2012         30,576         -4,022
           2013           2013         30,909       -4,02295
           2014           2014         31,242       -4,02382
           2015           2015         31,575       -4,02468
           2016           2016         31,909       -4,02516
           2017           2017         32,242       -4,02568
           2018           2018         32,575       -4,02617
           2019           2019         32,908       -4,02661
           2020           2020         33,241       -4,02669
           2021           2021         33,574       -4,02701
           2022           2022         33,907       -4,02745
           2023           2023         34,240       -4,02792
           2024           2024         34,573       -4,02858
           2025           2025         34,906       -4,02933
           2026           2026         35,240       -4,03011
           2027           2027         35,573       -4,03094
           2028           2028         35,906       -4,03218
           2029           2029         36,239       -4,03325
           2030           2030         36,572        -4,0343
           2031           2031         36,905       -4,03538
           2032           2032         37,238       -4,03651
           2033           2033         37,571       -4,03769
           2034           2034         37,904       -4,03894
           2035           2035         38,237       -4,04027
           2036           2036         38,570       -4,04165
           2037           2037         38,903       -4,04306
           2038           2038         39,236       -4,04452
           2039           2039         39,570       -4,04595
           2040           2040         39,903       -4,04749
           2041           2041         40,236         -4,049
           2042           2042         40,569       -4,05052
           2043           2043         40,902        -4,0521
           2044           2044         41,235       -4,05374
           2045           2045         41,568       -4,05541
           2046           2046         41,901       -4,05711
           2047           2047         42,234       -4,05888
           2048           2048         42,567       -4,06074
           2049           2049         42,900       -4,06253
           2050           2050         43,233       -4,06424
           2051           2051         43,566       -4,06588
           2052           2052         43,899       -4,06755
           2053           2053         44,232       -4,06939
           2054           2054         44,566       -4,07136
           2055           2055         44,899       -4,07339
           2056           2056         45,232       -4,07583
           2057           2057         45,565       -4,07831
           2058           2058         45,898       -4,08098
           2059           2059         46,231       -4,08381
           2060           2060         46,564       -4,08702
           2061           2061         46,897       -4,09035
           2062           2062         47,230        -4,0943
           2063           2063         47,563       -4,09833
           2064           2064         47,896       -4,10338
           2065           2065         48,229       -4,10774
           2066           2066         48,562       -4,11238
           2067           2067         48,895       -4,11828
           2068           2068         49,228       -4,12558
           2069           2069         49,561       -4,13265
           2070           2070         49,893       -4,14013
           2071           2071         50,226       -4,14793
           2072           2072         50,559       -4,15669
           2073           2073         50,892       -4,16539
           2074           2074         51,225       -4,17505
           2075           2075         51,558       -4,18536
           2076           2076         51,891       -4,19689
           2077           2077         52,223       -4,20913
           2078           2078         52,556       -4,22185
           2079           2079         52,889        -4,2355
           2080           2080         53,222       -4,25126
           2081           2081         53,554       -4,26793
           2082           2082         53,887       -4,28637
           2083           2083         54,219       -4,30617
           2084           2084         54,552       -4,32907
           2085           2085         54,884       -4,35337
           2086           2086         55,217       -4,38008
           2087           2087         55,549       -4,40876
           2088           2088         55,881       -4,44207
           2089           2089         56,213       -4,47732
           2090           2090         56,545       -4,51593
           2091           2091         56,877       -4,55825
           2092           2092         57,209       -4,60529
           2093           2093         57,541       -4,65671
           2094           2094         57,872       -4,71136
           2095           2095         58,204       -4,76839
           2096           2096         58,535       -4,83081
           2097           2097         58,867       -4,89499
           2098           2098         59,198       -4,96088
           2099           2099         59,529       -5,02684
           2100           2100         59,860       -5,09318
           2101           2101         60,192       -5,15787
           2102           2102         60,523       -5,21842
           2103           2103         60,854       -5,27599
           2104           2104         61,186       -5,32161
           2105           2105         61,518       -5,36036
           2106           2106         61,850       -5,38747
           2107           2107         62,183       -5,40321
           2108           2108         62,516       -5,41134
           2109           2109         62,849       -5,41486
           2110           2110         63,182       -5,41252
           2111           2111         63,515       -5,40598
           2112           2112         63,848       -5,39089
           2113           2113         64,182       -5,37452
           2114           2114         64,515       -5,35711
           2115           2115         64,849       -5,33968
           2116           2116         65,183       -5,32255
           2117           2117         65,516       -5,30675
           2118           2118         65,849       -5,29285
           2119           2119         66,183       -5,28019
           2120           2120         66,516       -5,27048
           2121           2121         66,849       -5,26176
           2122           2122         67,183       -5,25429
           2123           2123         67,516       -5,24803
           2124           2124         67,849       -5,24297
           2125           2125         68,182       -5,23826
           2126           2126         68,515       -5,23488
           2127           2127         68,848       -5,23188
           2128           2128         69,182       -5,23028
           2129           2129         69,515       -5,22809
           2130           2130         69,848       -5,22604
           2131           2131         70,181       -5,22457
           2132           2132         70,514       -5,22321
           2133           2133         70,847       -5,22211
           2134           2134         71,180       -5,22139
           2135           2135         71,513       -5,22104
           2136           2136         71,846       -5,22092
           2137           2137         72,179       -5,22058
           2138           2138         72,512       -5,22021
           2139           2139         72,845       -5,21988
           2140           2140         73,178       -5,21951
           2141           2141         73,511       -5,21924
           2142           2142         73,844       -5,21906
           2143           2143         74,177       -5,21892
           2144           2144         74,510       -5,21898
           2145           2145         74,843       -5,21894
           2146           2146         75,176       -5,21875
           2147           2147         75,510        -5,2185
           2148           2148         75,843       -5,21826
           2149           2149         76,176       -5,21788
           2150           2150         76,509       -5,21742
           2151           2151         76,842       -5,21683
           2152           2152         77,175       -5,21572
           2153           2153         77,508        -5,2146
           2154           2154         77,841       -5,21344
           2155           2155         78,174       -5,21234
           2156           2156         78,507        -5,2102
           2157           2157         78,840       -5,20861
           2158           2158         79,173       -5,20679
           2159           2159         79,506       -5,20444
           2160           2160         79,839       -5,20444
           2161           2161         80,173        -5,2042
           2162           2162         80,506       -5,20358
           2163           2163         80,839       -5,20297
           2164           2164         81,172        -5,2026
           2165           2165         81,505       -5,20209
           2166           2166         81,838       -5,20157
           2167           2167         82,171       -5,20101
           2168           2168         82,504       -5,20016
           2169           2169         82,837       -5,19813
           2170           2170         83,170        -5,1882
           2171           2171         83,504        -5,1643
           2172           2172         83,837       -5,16131
           2173           2173         84,170       -5,16339
           2174           2174         84,503       -5,16566
           2175           2175         84,836         -5,167
           2176           2176         85,169       -5,16724
           2177           2177         85,502       -5,16707
           2178           2178         85,835       -5,16681
           2179           2179         86,168       -5,16657
           2180           2180         86,502       -5,16574
           2181           2181         86,835       -5,16508
           2182           2182         87,168       -5,16441
           2183           2183         87,501       -5,16374
           2184           2184         87,834       -5,16275
           2185           2185         88,167       -5,16204
           2186           2186         88,500       -5,16149
           2187           2187         88,833         -5,161
           2188           2188         89,166       -5,16074
           2189           2189         89,499       -5,16047
           2190           2190         89,832       -5,16021
           2191           2191         90,165       -5,16001
           2192           2192         90,498       -5,15995
           2193           2193         90,831       -5,15974
           2194           2194         91,164       -5,15946
           2195           2195         91,497       -5,15911
           2196           2196         91,831       -5,15887
           2197           2197         92,164       -5,15871
           2198           2198         92,497        -5,1585
           2199           2199         92,830       -5,15826
           2200           2200         93,163       -5,15823
           2201           2201         93,496       -5,15815
           2202           2202         93,829       -5,15822
           2203           2203         94,162       -5,15835
           2204           2204         94,495       -5,15835
           2205           2205         94,828        -5,1585
           2206           2206         95,161       -5,15886
           2207           2207         95,494        -5,1592
           2208           2208         95,827       -5,15724
           2209           2209         96,160       -5,15625
           2210           2210         96,493       -5,15539
           2211           2211         96,826       -5,15449
           2212           2212         97,160       -5,15336
           2213           2213         97,493       -5,15215
           2214           2214         97,826       -5,15086
           2215           2215         98,159       -5,14919
           2216           2216         98,492       -5,14663
           2217           2217         98,825       -5,14442
           2218           2218         99,158       -5,14215
           2219           2219         99,491       -5,13951
           2220           2220         99,825       -5,13659
           2221           2221        100,158       -5,13322
           2222           2222        100,491       -5,12872
           2223           2223        100,824       -5,12401
           2224           2224        101,157        -5,1182
           2225           2225        101,491       -5,11235
           2226           2226        101,824       -5,10657
           2227           2227        102,157       -5,10071
           2228           2228        102,490       -5,09446
           2229           2229        102,824       -5,08824
           2230           2230        103,157       -5,08159
           2231           2231        103,490       -5,07465
           2232           2232        103,824       -5,06667
           2233           2233        104,157       -5,05874
           2234           2234        104,490       -5,05054
           2235           2235        104,824       -5,04205
           2236           2236        105,157       -5,03308
           2237           2237        105,490       -5,02363
           2238           2238        105,824       -5,01311
           2239           2239        106,157       -5,00271
           2240           2240        106,491       -4,99178
           2241           2241        106,824       -4,98027
           2242           2242        107,158       -4,96815
           2243           2243        107,491       -4,95592
           2244           2244        107,825       -4,94283
           2245           2245        108,158        -4,9298
           2246           2246        108,492       -4,91615
           2247           2247        108,825       -4,90224
           2248           2248        109,159       -4,88589
           2249           2249        109,493       -4,86896
           2250           2250        109,826       -4,85153
           2251           2251        110,160        -4,8334
           2252           2252        110,494       -4,81517
           2253           2253        110,828       -4,79632
           2254           2254        111,161       -4,77617
           2255           2255        111,495       -4,75591
           2256           2256        111,829       -4,73314
           2257           2257        112,163       -4,70949
           2258           2258        112,497       -4,68529
           2259           2259        112,831       -4,66031
           2260           2260        113,165       -4,63483
           2261           2261        113,499       -4,60934
           2262           2262        113,833       -4,58319
           2263           2263        114,167       -4,55684
           2264           2264        114,501        -4,5279
           2265           2265        114,835       -4,49906
           2266           2266        115,170       -4,47009
           2267           2267        115,504       -4,44075
           2268           2268        115,838       -4,41102
           2269           2269        116,172       -4,38119
           2270           2270        116,506        -4,3512
           2271           2271        116,841       -4,32082
           2272           2272        117,175       -4,29271
           2273           2273        117,509       -4,26418
           2274           2274        117,843       -4,23579
           2275           2275        118,177       -4,20747
           2276           2276        118,511       -4,18022
           2277           2277        118,845       -4,15418
           2278           2278        119,179        -4,1297
           2279           2279        119,513       -4,10619
           2280           2280        119,847       -4,08897
           2281           2281        120,181       -4,07014
           2282           2282        120,515        -4,0499
           2283           2283        120,849       -4,02911
           2284           2284        121,183       -4,01391
           2285           2285        121,516       -3,99974
           2286           2286        121,850        -3,9868
           2287           2287        122,183       -3,97479
           2288           2288        122,517       -3,96276
           2289           2289        122,851       -3,95038
           2290           2290        123,184       -3,93921
           2291           2291        123,517       -3,93187
           2292           2292        123,851       -3,92843
           2293           2293        124,184       -3,92523
           2294           2294        124,517       -3,92208
           2295           2295        124,851       -3,91878
           2296           2296        125,183       -3,92353
           2297           2297        125,516       -3,92924
           2298           2298        125,849       -3,93603
           2299           2299        126,182       -3,94292
           2300           2300        126,515        -3,9529
           2301           2301        126,848       -3,96437
           2302           2302        127,180       -3,97747
           2303           2303        127,513       -3,99127
           2304           2304        127,845       -4,00529
           2305           2305        128,178       -4,01968
           2306           2306        128,510       -4,03538
           2307           2307        128,843       -4,05209
           2308           2308        129,175       -4,07148
           2309           2309        129,508       -4,09075
           2310           2310        129,840       -4,11062
           2311           2311        130,172       -4,13143
           2312           2312        130,505       -4,15447
           2313           2313        130,837       -4,17837
           2314           2314        131,169       -4,20273
           2315           2315        131,501       -4,22711
           2316           2316        131,833       -4,25249
           2317           2317        132,165        -4,2776
           2318           2318        132,497       -4,30316
           2319           2319        132,830       -4,32873
           2320           2320        133,162       -4,35494
           2321           2321        133,494       -4,38084
           2322           2322        133,826       -4,40689
           2323           2323        134,158       -4,43315
           2324           2324        134,490       -4,46138
           2325           2325        134,822       -4,48973
           2326           2326        135,154       -4,51775
           2327           2327        135,486       -4,54568
           2328           2328        135,818       -4,57254
           2329           2329        136,150       -4,59974
           2330           2330        136,482       -4,62688
           2331           2331        136,814       -4,65405
           2332           2332        137,146       -4,68092
           2333           2333        137,478       -4,70723
           2334           2334        137,810       -4,73247
           2335           2335        138,142       -4,75804
           2336           2336        138,474       -4,78355
           2337           2337        138,806       -4,80934
           2338           2338        139,138       -4,83574
           2339           2339        139,470       -4,86216
           2340           2340        139,802       -4,88889
           2341           2341        140,134       -4,91555
           2342           2342        140,466       -4,94214
           2343           2343        140,798       -4,96869
           2344           2344        141,130       -4,99634
           2345           2345        141,462       -5,02439
           2346           2346        141,794       -5,05373
           2347           2347        142,126        -5,0832
           2348           2348        142,458       -5,11539
           2349           2349        142,789       -5,14951
           2350           2350        143,121       -5,18628
           2351           2351        143,452       -5,22463
           2352           2352        143,784        -5,2724
           2353           2353        144,114       -5,32745
           2354           2354        144,445       -5,39325
           2355           2355        144,775       -5,46805
           2356           2356        145,104       -5,57153
           2357           2357        145,432       -5,69169
           2358           2358        145,759       -5,83288
           2359           2359        146,085       -5,98868
           2360           2360        146,411       -6,17613
           2361           2361        146,735       -6,37502
           2362           2362        147,060       -6,58338
           2363           2363        147,384       -6,79591
           2364           2364        147,708       -7,00939
           2365           2365        148,032       -7,21769
           2366           2366        148,357       -7,41581
           2367           2367        148,682       -7,60524
           2368           2368        149,008       -7,76882
           2369           2369        149,335       -7,91901
           2370           2370        149,662       -8,05378
           2371           2371        149,990       -8,17556
           2372           2372        150,319       -8,25896
           2373           2373        150,650       -8,32558
           2374           2374        150,981       -8,37271
           2375           2375        151,312       -8,40638
           2376           2376        151,645       -8,39873
           2377           2377        151,979       -8,36807
           2378           2378        152,315        -8,3077
           2379           2379        152,651         -8,227
           2380           2380        152,990       -8,10153
           2381           2381        153,329       -7,95616
           2382           2382        153,669       -7,78994
           2383           2383        154,009       -7,60919
           2384           2384        154,351        -7,3999
           2385           2385        154,694       -7,18084
           2386           2386        155,036       -6,95423
           2387           2387        155,379        -6,7256
           2388           2388        155,721       -6,50603
           2389           2389        156,063        -6,3005
           2390           2390        156,404       -6,11589
           2391           2391        156,744       -5,94756
           2392           2392        157,083       -5,81784
           2393           2393        157,421       -5,70523
           2394           2394        157,758       -5,61116
           2395           2395        158,095       -5,52892
           2396           2396        158,430       -5,47356
           2397           2397        158,765       -5,42541
           2398           2398        159,100       -5,38298
           2399           2399        159,435       -5,34497
           2400           2400        159,769       -5,31775
           2401           2401        160,103       -5,29316
           2402           2402        160,437       -5,27327
           2403           2403        160,771       -5,25488
           2404           2404        161,105       -5,24484
           2405           2405        161,438       -5,23693
           2406           2406        161,772       -5,22907
           2407           2407        162,105       -5,22135
           2408           2408        162,438       -5,21608
           2409           2409        162,772       -5,21094
           2410           2410        163,105       -5,20655
           2411           2411        163,438       -5,20287
           2412           2412        163,771        -5,1998
           2413           2413        164,105       -5,19682
           2414           2414        164,438       -5,19406
           2415           2415        164,771       -5,19137
           2416           2416        165,104       -5,18979
           2417           2417        165,437       -5,18924
           2418           2418        165,770       -5,19166
           2419           2419        166,103       -5,19847
           2420           2420        166,436       -5,20077
           2421           2421        166,769       -5,20419
           2422           2422        167,102       -5,21246
           2423           2423        167,434       -5,22873
           2424           2424        167,767       -5,22569
           2425           2425        168,100       -5,22065
           2426           2426        168,434       -5,21654
           2427           2427        168,767       -5,21369
           2428           2428        169,100       -5,21186
           2429           2429        169,433       -5,21025
           2430           2430        169,766       -5,20926
           2431           2431        170,099        -5,2093
           2432           2432        170,433        -5,2105
           2433           2433        170,766       -5,21151
           2434           2434        171,099       -5,21267
           2435           2435        171,432       -5,21365
           2436           2436        171,765       -5,21478
           2437           2437        172,098       -5,21574
           2438           2438        172,431       -5,21661
           2439           2439        172,764       -5,21722
           2440           2440        173,097       -5,21674
           2441           2441        173,430       -5,21674
           2442           2442        173,763       -5,21685
           2443           2443        174,096         -5,217
           2444           2444        174,429       -5,21717
           2445           2445        174,762       -5,21748
           2446           2446        175,095       -5,21792
           2447           2447        175,428       -5,21847
           2448           2448        175,762       -5,21949
           2449           2449        176,095       -5,22033
           2450           2450        176,428       -5,22115
           2451           2451        176,761       -5,22199
           2452           2452        177,094       -5,22331
           2453           2453        177,427       -5,22433
           2454           2454        177,760       -5,22537
           2455           2455        178,093       -5,22683
           2456           2456        178,426       -5,22904
           2457           2457        178,759       -5,22872
           2458           2458        179,092       -5,22858
           2459           2459        179,425       -5,22852
           2460           2460        179,758       -5,22917
           2461           2461        180,091       -5,22967
           2462           2462        180,424       -5,23028
           2463           2463        180,757       -5,23037
           2464           2464        181,091       -5,22812
           2465           2465        181,424       -5,22653
           2466           2466        181,757       -5,22714
           2467           2467        182,090       -5,22754
           2468           2468        182,423        -5,2269
           2469           2469        182,756       -5,22655
           2470           2470        183,089        -5,2264
           2471           2471        183,422       -5,22625
           2472           2472        183,755       -5,22599
           2473           2473        184,089       -5,22592
           2474           2474        184,422       -5,22594
           2475           2475        184,755       -5,22594
           2476           2476        185,088       -5,22607
           2477           2477        185,421       -5,22605
           2478           2478        185,754       -5,22604
           2479           2479        186,087       -5,22605
           2480           2480        186,420       -5,22601
           2481           2481        186,753       -5,22606
           2482           2482        187,086        -5,2261
           2483           2483        187,419       -5,22615
           2484           2484        187,753       -5,22643
           2485           2485        188,086       -5,22668
           2486           2486        188,419       -5,22697
           2487           2487        188,752       -5,22731
           2488           2488        189,085       -5,22779
           2489           2489        189,418       -5,22819
           2490           2490        189,751       -5,22858
           2491           2491        190,084       -5,22899
           2492           2492        190,417       -5,22941
           2493           2493        190,750       -5,22988
           2494           2494        191,083       -5,23042
           2495           2495        191,416       -5,23102
           2496           2496        191,749       -5,23171
           2497           2497        192,082       -5,23235
           2498           2498        192,416       -5,23299
           2499           2499        192,749       -5,23364
           2500           2500        193,082       -5,23434
           2501           2501        193,415       -5,23505
           2502           2502        193,748       -5,23571
           2503           2503        194,081       -5,23627
           2504           2504        194,414       -5,23674
           2505           2505        194,747       -5,23714
           2506           2506        195,080       -5,23747
           2507           2507        195,413       -5,23771
           2508           2508        195,746       -5,23783
           2509           2509        196,079       -5,23792
           2510           2510        196,412       -5,23809
           2511           2511        196,746        -5,2383
           2512           2512        197,079       -5,23855
           2513           2513        197,412        -5,2388
           2514           2514        197,745       -5,23914
           2515           2515        198,078       -5,23964
           2516           2516        198,411       -5,24033
           2517           2517        198,744       -5,24111
           2518           2518        199,077       -5,24182
           2519           2519        199,410       -5,24241
           2520           2520        199,743       -5,24297


Results:
  Step	-0,12 Wg^-1
  	-0,74 mW
  Onset	21,25 °C
  Inflect. Pt.	36,55 °C
  Midpoint	30,58 °C
  Angle Midpoint	30,50 °C

  Step	-64,19e-03 Wg^-1
  	-0,39 mW
  Onset	67,26 °C
  Inflect. Pt.	73,84 °C
  Midpoint	73,72 °C
  Angle Midpoint	74,99 °C

  Integral	-183,18 mJ
    normalized	-30,53 Jg^-1
  Onset	137,91 °C
  Peak	148,95 °C

  Step	-0,17 Wg^-1
  	-1,01 mW
  Onset	55,26 °C
  Inflect. Pt.	48,79 °C
  Midpoint	50,30 °C
  Angle Midpoint	51,21 °C

  Step	-0,20 Wg^-1
  	-1,20 mW
  Onset	54,99 °C
  Inflect. Pt.	59,20 °C
  Midpoint	57,55 °C
  Angle Midpoint	58,26 °C

  Integral	67,48 mJ
    normalized	11,25 Jg^-1
  Onset	108,28 °C
  Peak	124,85 °C

  Integral	-84,69 mJ
    normalized	-14,12 Jg^-1
  Onset	144,62 °C
  Peak	151,31 °C

Sample:
  Grazia_DSC_GR31, 6,0000 mg


________________________________________________________________________________
Not signed                                                        STARe SW 16.40