Grazia_DSC_GR33                                                 01.02.2023 15:50
________________________________________________________________________________



Curve Name:
  Grazia_DSC_GR33, 01.02.2023 15:44:55
  Performed 01.02.2023 15:44:55
Curve Values:
          Index              t             Ts          Value
                           [s]           [°C]           [mW]
              0              0        -79,995        0,86887
              1              1        -79,662        0,88957
              2              2        -79,328        1,05558
              3              3        -78,993        1,29235
              4              4        -78,660        1,25702
              5              5        -78,328       0,981648
              6              6        -77,997       0,491194
              7              7        -77,667      -0,104564
              8              8        -77,338      -0,772317
              9              9        -77,008       -1,40065
             10             10        -76,678       -1,97316
             11             11        -76,348       -2,49834
             12             12        -76,017        -2,9135
             13             13        -75,686       -3,28073
             14             14        -75,355       -3,59281
             15             15        -75,023       -3,87557
             16             16        -74,692       -4,08889
             17             17        -74,360       -4,27537
             18             18        -74,027       -4,43328
             19             19        -73,695       -4,57529
             20             20        -73,363       -4,67809
             21             21        -73,030       -4,77175
             22             22        -72,697       -4,84904
             23             23        -72,365       -4,91563
             24             24        -72,032       -4,96196
             25             25        -71,699       -5,00218
             26             26        -71,366       -5,03553
             27             27        -71,033       -5,06648
             28             28        -70,700       -5,09175
             29             29        -70,367       -5,10999
             30             30        -70,034       -5,12255
             31             31        -69,701        -5,1317
             32             32        -69,368       -5,13727
             33             33        -69,035       -5,14033
             34             34        -68,702       -5,14458
             35             35        -68,369       -5,14652
             36             36        -68,036       -5,14581
             37             37        -67,703       -5,14374
             38             38        -67,370       -5,13997
             39             39        -67,036       -5,13478
             40             40        -66,703       -5,12884
             41             41        -66,370       -5,12258
             42             42        -66,037       -5,11581
             43             43        -65,704       -5,10828
             44             44        -65,371       -5,10088
             45             45        -65,038       -5,09373
             46             46        -64,704       -5,08647
             47             47        -64,371       -5,07912
             48             48        -64,038       -5,07156
             49             49        -63,705       -5,06434
             50             50        -63,372       -5,05702
             51             51        -63,039       -5,04865
             52             52        -62,705       -5,03957
             53             53        -62,372       -5,03193
             54             54        -62,039       -5,02714
             55             55        -61,706       -5,02092
             56             56        -61,373       -5,01304
             57             57        -61,040       -5,00559
             58             58        -60,706       -4,99871
             59             59        -60,373        -4,9892
             60             60        -60,040       -4,98629
             61             61        -59,707        -4,9816
             62             62        -59,374       -4,97449
             63             63        -59,041       -4,96789
             64             64        -58,708       -4,96161
             65             65        -58,374       -4,95544
             66             66        -58,041       -4,94909
             67             67        -57,708       -4,94275
             68             68        -57,375       -4,93761
             69             69        -57,042       -4,93237
             70             70        -56,709       -4,92775
             71             71        -56,375       -4,92309
             72             72        -56,042       -4,91896
             73             73        -55,709       -4,91566
             74             74        -55,376       -4,91487
             75             75        -55,043       -4,91476
             76             76        -54,710       -4,91062
             77             77        -54,377       -4,90614
             78             78        -54,044         -4,902
             79             79        -53,710       -4,89785
             80             80        -53,377       -4,89432
             81             81        -53,044       -4,89027
             82             82        -52,711       -4,88666
             83             83        -52,378       -4,88518
             84             84        -52,045       -4,88806
             85             85        -51,712        -4,8876
             86             86        -51,379       -4,88554
             87             87        -51,045       -4,88266
             88             88        -50,712       -4,88459
             89             89        -50,379        -4,8852
             90             90        -50,046       -4,88539
             91             91        -49,713       -4,88596
             92             92        -49,380        -4,8866
             93             93        -49,047       -4,88731
             94             94        -48,714        -4,8881
             95             95        -48,381       -4,88883
             96             96        -48,048       -4,89004
             97             97        -47,715       -4,89155
             98             98        -47,381        -4,8937
             99             99        -47,048       -4,89563
            100            100        -46,715       -4,89689
            101            101        -46,382        -4,8984
            102            102        -46,049       -4,90003
            103            103        -45,716       -4,90169
            104            104        -45,383       -4,90351
            105            105        -45,050       -4,90543
            106            106        -44,717       -4,90764
            107            107        -44,384       -4,90968
            108            108        -44,051       -4,91245
            109            109        -43,718       -4,91465
            110            110        -43,385       -4,91591
            111            111        -43,052        -4,9171
            112            112        -42,718       -4,91815
            113            113        -42,385       -4,92068
            114            114        -42,052       -4,92552
            115            115        -41,719        -4,9283
            116            116        -41,386        -4,9286
            117            117        -41,053       -4,92965
            118            118        -40,720       -4,93345
            119            119        -40,387       -4,93834
            120            120        -40,054       -4,94009
            121            121        -39,721       -4,94178
            122            122        -39,388       -4,94338
            123            123        -39,055       -4,94533
            124            124        -38,722        -4,9468
            125            125        -38,389       -4,94834
            126            126        -38,056       -4,94995
            127            127        -37,722       -4,95157
            128            128        -37,389       -4,95208
            129            129        -37,056       -4,95186
            130            130        -36,723       -4,95157
            131            131        -36,390       -4,95084
            132            132        -36,057       -4,94506
            133            133        -35,724       -4,94081
            134            134        -35,391       -4,94047
            135            135        -35,058       -4,94061
            136            136        -34,725       -4,93886
            137            137        -34,391       -4,93721
            138            138        -34,058       -4,93506
            139            139        -33,725       -4,93244
            140            140        -33,392       -4,92774
            141            141        -33,059       -4,92363
            142            142        -32,726       -4,91948
            143            143        -32,393       -4,91525
            144            144        -32,060       -4,90977
            145            145        -31,726       -4,90453
            146            146        -31,393       -4,89945
            147            147        -31,060       -4,89412
            148            148        -30,727       -4,88932
            149            149        -30,394       -4,88438
            150            150        -30,061       -4,87948
            151            151        -29,728       -4,87455
            152            152        -29,394       -4,86967
            153            153        -29,061        -4,8646
            154            154        -28,728       -4,85961
            155            155        -28,395       -4,85477
            156            156        -28,062       -4,84922
            157            157        -27,729       -4,84352
            158            158        -27,396       -4,83976
            159            159        -27,062       -4,83674
            160            160        -26,729       -4,83401
            161            161        -26,396       -4,83089
            162            162        -26,063       -4,82773
            163            163        -25,730       -4,82457
            164            164        -25,397        -4,8212
            165            165        -25,064       -4,81802
            166            166        -24,731       -4,81486
            167            167        -24,398       -4,81242
            168            168        -24,064       -4,81234
            169            169        -23,731       -4,81181
            170            170        -23,398       -4,81124
            171            171        -23,065       -4,81091
            172            172        -22,732       -4,81188
            173            173        -22,399       -4,81271
            174            174        -22,066       -4,81351
            175            175        -21,733       -4,81579
            176            176        -21,400       -4,82121
            177            177        -21,067        -4,8232
            178            178        -20,734       -4,82583
            179            179        -20,401       -4,82865
            180            180        -20,068       -4,83152
            181            181        -19,735       -4,83628
            182            182        -19,402       -4,84187
            183            183        -19,069       -4,84785
            184            184        -18,736       -4,85431
            185            185        -18,403       -4,86115
            186            186        -18,070       -4,86788
            187            187        -17,737       -4,87502
            188            188        -17,404       -4,88209
            189            189        -17,071       -4,88948
            190            190        -16,738       -4,89677
            191            191        -16,405       -4,90409
            192            192        -16,072        -4,9114
            193            193        -15,739        -4,9186
            194            194        -15,406       -4,92639
            195            195        -15,073       -4,93524
            196            196        -14,740       -4,94393
            197            197        -14,407       -4,95318
            198            198        -14,075       -4,96209
            199            199        -13,742       -4,97098
            200            200        -13,409       -4,97989
            201            201        -13,076       -4,98895
            202            202        -12,743       -4,99808
            203            203        -12,410       -5,00735
            204            204        -12,077       -5,01669
            205            205        -11,744       -5,02626
            206            206        -11,411       -5,03554
            207            207        -11,078       -5,04486
            208            208        -10,745       -5,05448
            209            209        -10,412       -5,06271
            210            210        -10,080       -5,07127
            211            211         -9,747        -5,0794
            212            212         -9,414       -5,08743
            213            213         -9,081       -5,09504
            214            214         -8,748       -5,10244
            215            215         -8,415       -5,10964
            216            216         -8,082       -5,11693
            217            217         -7,749       -5,12372
            218            218         -7,416       -5,13059
            219            219         -7,083       -5,13741
            220            220         -6,750       -5,14428
            221            221         -6,417       -5,15067
            222            222         -6,084       -5,15652
            223            223         -5,751       -5,16194
            224            224         -5,418       -5,16745
            225            225         -5,085       -5,17275
            226            226         -4,753       -5,17816
            227            227         -4,420       -5,18362
            228            228         -4,087       -5,18912
            229            229         -3,754       -5,19468
            230            230         -3,421       -5,20027
            231            231         -3,088       -5,20591
            232            232         -2,755       -5,21158
            233            233         -2,422       -5,21747
            234            234         -2,089       -5,22324
            235            235         -1,756       -5,22891
            236            236         -1,423       -5,23458
            237            237         -1,090        -5,2401
            238            238         -0,757       -5,24556
            239            239         -0,424       -5,25082
            240            240    -91,242e-03       -5,25623
            241            241          0,242       -5,26139
            242            242          0,575       -5,26659
            243            243          0,908       -5,27184
            244            244          1,241       -5,27731
            245            245          1,573       -5,28232
            246            246          1,906       -5,28745
            247            247          2,239       -5,29242
            248            248          2,572       -5,29723
            249            249          2,905       -5,30183
            250            250          3,238       -5,30637
            251            251          3,571        -5,3108
            252            252          3,904       -5,31517
            253            253          4,237       -5,31889
            254            254          4,570       -5,32282
            255            255          4,903       -5,32665
            256            256          5,236       -5,33009
            257            257          5,569       -5,33314
            258            258          5,902       -5,33636
            259            259          6,235       -5,33952
            260            260          6,568        -5,3427
            261            261          6,901       -5,34564
            262            262          7,234       -5,34849
            263            263          7,567       -5,35007
            264            264          7,900       -5,35156
            265            265          8,233       -5,35318
            266            266          8,566       -5,35475
            267            267          8,899       -5,35612
            268            268          9,232       -5,35714
            269            269          9,565       -5,33502
            270            270          9,899       -5,33191
            271            271         10,231       -5,33944
            272            272         10,564       -5,34854
            273            273         10,897        -5,3558
            274            274         11,230       -5,36278
            275            275         11,563       -5,36904
            276            276         11,896       -5,37511
            277            277         12,229       -5,38101
            278            278         12,562       -5,38728
            279            279         12,895        -5,3936
            280            280         13,228       -5,39982
            281            281         13,560        -5,4063
            282            282         13,893       -5,41322
            283            283         14,226       -5,42133
            284            284         14,559       -5,42991
            285            285         14,892       -5,43859
            286            286         15,225       -5,44757
            287            287         15,558       -5,45686
            288            288         15,890        -5,4661
            289            289         16,223       -5,47569
            290            290         16,556       -5,48508
            291            291         16,889       -5,49453
            292            292         17,222       -5,50401
            293            293         17,555       -5,51316
            294            294         17,887        -5,5223
            295            295         18,220       -5,53167
            296            296         18,553       -5,54133
            297            297         18,886       -5,54904
            298            298         19,219       -5,55603
            299            299         19,552       -5,56185
            300            300         19,885       -5,56648
            301            301         20,218       -5,56893
            302            302         20,551       -5,57039
            303            303         20,884       -5,57023
            304            304         21,217       -5,56909
            305            305         21,550        -5,5649
            306            306         21,883       -5,55915
            307            307         22,216       -5,55137
            308            308         22,549       -5,54242
            309            309         22,883       -5,53046
            310            310         23,216       -5,51519
            311            311         23,549       -5,49823
            312            312         23,883       -5,48038
            313            313         24,216       -5,45628
            314            314         24,550       -5,43114
            315            315         24,884       -5,40434
            316            316         25,217       -5,37658
            317            317         25,551        -5,3469
            318            318         25,885       -5,31762
            319            319         26,218       -5,28863
            320            320         26,552       -5,26065
            321            321         26,885       -5,23487
            322            322         27,219       -5,21069
            323            323         27,553       -5,18988
            324            324         27,886       -5,17039
            325            325         28,219       -5,15359
            326            326         28,553       -5,13905
            327            327         28,886       -5,12924
            328            328         29,219       -5,12108
            329            329         29,552       -5,11666
            330            330         29,886       -5,11315
            331            331         30,219       -5,10992
            332            332         30,552       -5,10697
            333            333         30,885       -5,09775
            334            334         31,218       -5,09862
            335            335         31,551       -5,10892
            336            336         31,884       -5,12201
            337            337         32,216       -5,13701
            338            338         32,549       -5,15223
            339            339         32,882        -5,1689
            340            340         33,214       -5,18624
            341            341         33,547       -5,20558
            342            342         33,880       -5,22621
            343            343         34,212       -5,24879
            344            344         34,545       -5,27246
            345            345         34,877       -5,29837
            346            346         35,209       -5,32486
            347            347         35,542       -5,35331
            348            348         35,874       -5,38478
            349            349         36,206       -5,41896
            350            350         36,538       -5,45418
            351            351         36,871       -5,49124
            352            352         37,203       -5,52982
            353            353         37,535       -5,57248
            354            354         37,867       -5,61673
            355            355         38,199       -5,66266
            356            356         38,531       -5,70908
            357            357         38,862       -5,75667
            358            358         39,194       -5,80393
            359            359         39,526       -5,85103
            360            360         39,858       -5,89724
            361            361         40,190       -5,94041
            362            362         40,522       -5,98056
            363            363         40,854       -6,01752
            364            364         41,186       -6,04987
            365            365         41,519        -6,0777
            366            366         41,851       -6,10115
            367            367         42,184       -6,11856
            368            368         42,516       -6,13202
            369            369         42,849       -6,13732
            370            370         43,182       -6,13772
            371            371         43,515       -6,13281
            372            372         43,849       -6,12392
            373            373         44,182       -6,10508
            374            374         44,516       -6,07961
            375            375         44,849       -6,05051
            376            376         45,183       -6,01943
            377            377         45,517       -5,97991
            378            378         45,851       -5,94013
            379            379         46,185       -5,90046
            380            380         46,519       -5,86105
            381            381         46,853       -5,82153
            382            382         47,187       -5,78257
            383            383         47,521       -5,74487
            384            384         47,855       -5,70758
            385            385         48,189       -5,67633
            386            386         48,523       -5,64497
            387            387         48,857       -5,61202
            388            388         49,190       -5,57866
            389            389         49,524        -5,5511
            390            390         49,858       -5,52734
            391            391         50,191       -5,50438
            392            392         50,525       -5,48153
            393            393         50,859        -5,4413
            394            394         51,193       -5,42011
            395            395         51,526       -5,41545
            396            396         51,859       -5,41422
            397            397         52,192       -5,41454
            398            398         52,525       -5,41469
            399            399         52,858       -5,41496
            400            400         53,191       -5,41542
            401            401         53,524       -5,41667
            402            402         53,857       -5,41791
            403            403         54,190       -5,41938
            404            404         54,523        -5,4211
            405            405         54,856       -5,42341
            406            406         55,189       -5,42603
            407            407         55,522       -5,42944
            408            408         55,855       -5,43431
            409            409         56,188       -5,44215
            410            410         56,520       -5,45059
            411            411         56,853       -5,45914
            412            412         57,186       -5,46749
            413            413         57,519        -5,4759
            414            414         57,852       -5,48418
            415            415         58,184       -5,49233
            416            416         58,517        -5,5004
            417            417         58,850       -5,50801
            418            418         59,183       -5,51572
            419            419         59,516       -5,52328
            420            420         59,848       -5,53068
            421            421         60,181       -5,53753
            422            422         60,514       -5,54459
            423            423         60,847       -5,55171
            424            424         61,180        -5,5588
            425            425         61,513       -5,56554
            426            426         61,845        -5,5724
            427            427         62,178       -5,57916
            428            428         62,511       -5,58578
            429            429         62,844       -5,59221
            430            430         63,177       -5,59861
            431            431         63,509        -5,6049
            432            432         63,842       -5,61082
            433            433         64,175       -5,61648
            434            434         64,508       -5,62215
            435            435         64,841       -5,62777
            436            436         65,174       -5,63307
            437            437         65,507       -5,63741
            438            438         65,839       -5,64213
            439            439         66,172       -5,64688
            440            440         66,505        -5,6516
            441            441         66,838       -5,65615
            442            442         67,171       -5,66089
            443            443         67,504        -5,6656
            444            444         67,837       -5,67021
            445            445         68,170       -5,67498
            446            446         68,502       -5,67967
            447            447         68,835       -5,68437
            448            448         69,168       -5,68905
            449            449         69,501       -5,69377
            450            450         69,834       -5,69864
            451            451         70,167       -5,70355
            452            452         70,500       -5,70847
            453            453         70,833        -5,7136
            454            454         71,165       -5,71862
            455            455         71,498       -5,72363
            456            456         71,831       -5,72861
            457            457         72,164       -5,73349
            458            458         72,497       -5,73836
            459            459         72,830       -5,74315
            460            460         73,163       -5,74791
            461            461         73,495       -5,75253
            462            462         73,828       -5,75719
            463            463         74,161       -5,76191
            464            464         74,494       -5,76665
            465            465         74,827       -5,77125
            466            466         75,160       -5,77585
            467            467         75,493       -5,78053
            468            468         75,825       -5,78528
            469            469         76,158       -5,78995
            470            470         76,491       -5,79461
            471            471         76,824       -5,79918
            472            472         77,157       -5,80367
            473            473         77,490       -5,80822
            474            474         77,823       -5,81285
            475            475         78,156       -5,81753
            476            476         78,488       -5,82227
            477            477         78,821        -5,8272
            478            478         79,154       -5,83217
            479            479         79,487       -5,83712
            480            480         79,820       -5,84208
            481            481         80,153       -5,84714
            482            482         80,485       -5,85213
            483            483         80,818       -5,85712
            484            484         81,151       -5,86211
            485            485         81,484       -5,86688
            486            486         81,817       -5,87157
            487            487         82,150       -5,87632
            488            488         82,483       -5,88146
            489            489         82,815       -5,88543
            490            490         83,148       -5,88907
            491            491         83,481       -5,89168
            492            492         83,814       -5,89439
            493            493         84,147       -5,89755
            494            494         84,480       -5,90072
            495            495         84,813        -5,9038
            496            496         85,146       -5,90682
            497            497         85,479       -5,90998
            498            498         85,812       -5,91292
            499            499         86,145       -5,91577
            500            500         86,477       -5,91831
            501            501         86,810        -5,9204
            502            502         87,143       -5,92261
            503            503         87,476       -5,92474
            504            504         87,809       -5,92671
            505            505         88,142       -5,92816
            506            506         88,475       -5,92971
            507            507         88,808       -5,93111
            508            508         89,141       -5,93204
            509            509         89,474       -5,93255
            510            510         89,807       -5,93326
            511            511         90,140       -5,93392
            512            512         90,473       -5,93445
            513            513         90,806       -5,93454
            514            514         91,139       -5,93474
            515            515         91,472       -5,93487
            516            516         91,805       -5,93493
            517            517         92,138       -5,93466
            518            518         92,471       -5,93453
            519            519         92,804       -5,93444
            520            520         93,137       -5,93435
            521            521         93,470       -5,93413
            522            522         93,803         -5,934
            523            523         94,136       -5,93397
            524            524         94,469       -5,93398
            525            525         94,802         -5,934
            526            526         95,135       -5,93399
            527            527         95,468       -5,93398
            528            528         95,801       -5,93394
            529            529         96,134         -5,934
            530            530         96,467       -5,93412
            531            531         96,800       -5,93428
            532            532         97,133       -5,93442
            533            533         97,466       -5,93471
            534            534         97,799       -5,93497
            535            535         98,132       -5,93526
            536            536         98,465       -5,93559
            537            537         98,798        -5,9361
            538            538         99,131       -5,93662
            539            539         99,464       -5,93723
            540            540         99,797       -5,93793
            541            541        100,130       -5,93901
            542            542        100,463       -5,94008
            543            543        100,796       -5,94126
            544            544        101,129       -5,94252
            545            545        101,462       -5,94421
            546            546        101,795       -5,94584
            547            547        102,128        -5,9475
            548            548        102,461       -5,94922
            549            549        102,794       -5,95131
            550            550        103,127       -5,95334
            551            551        103,460       -5,95544
            552            552        103,793       -5,95759
            553            553        104,126       -5,96018
            554            554        104,458       -5,96268
            555            555        104,791       -5,96523
            556            556        105,124       -5,96783
            557            557        105,457       -5,97075
            558            558        105,790       -5,97352
            559            559        106,123       -5,97628
            560            560        106,456       -5,97915
            561            561        106,789       -5,98224
            562            562        107,122       -5,98542
            563            563        107,455       -5,98863
            564            564        107,788       -5,99213
            565            565        108,120       -5,99644
            566            566        108,453        -6,0005
            567            567        108,786       -6,00462
            568            568        109,119       -6,00882
            569            569        109,452       -6,01343
            570            570        109,785       -6,01801
            571            571        110,118       -6,02261
            572            572        110,450       -6,02723
            573            573        110,783       -6,03217
            574            574        111,116       -6,03706
            575            575        111,449       -6,04202
            576            576        111,782       -6,04701
            577            577        112,115       -6,05222
            578            578        112,447       -6,05742
            579            579        112,780       -6,06264
            580            580        113,113       -6,06781
            581            581        113,446       -6,07331
            582            582        113,779       -6,07881
            583            583        114,111       -6,08441
            584            584        114,444       -6,09005
            585            585        114,777       -6,09594
            586            586        115,110       -6,10176
            587            587        115,443       -6,10765
            588            588        115,775       -6,11358
            589            589        116,108       -6,11962
            590            590        116,441        -6,1256
            591            591        116,774       -6,13157
            592            592        117,107       -6,13757
            593            593        117,439       -6,14379
            594            594        117,772       -6,15006
            595            595        118,105        -6,1565
            596            596        118,438       -6,16307
            597            597        118,770       -6,17023
            598            598        119,103       -6,17729
            599            599        119,436       -6,18444
            600            600        119,769       -6,19166
            601            601        120,101       -6,19947
            602            602        120,434       -6,20714
            603            603        120,767       -6,21491
            604            604        121,100        -6,2228
            605            605        121,432       -6,23115
            606            606        121,765        -6,2395
            607            607        122,098       -6,24791
            608            608        122,430        -6,2564
            609            609        122,763       -6,26549
            610            610        123,096       -6,27453
            611            611        123,428       -6,28376
            612            612        123,761       -6,29303
            613            613        124,094        -6,3029
            614            614        124,426       -6,31273
            615            615        124,759       -6,32274
            616            616        125,091       -6,33296
            617            617        125,424       -6,34345
            618            618        125,757       -6,35412
            619            619        126,089       -6,36551
            620            620        126,422       -6,37715
            621            621        126,754       -6,38915
            622            622        127,087       -6,40102
            623            623        127,419       -6,41329
            624            624        127,752       -6,42576
            625            625        128,084        -6,4392
            626            626        128,417       -6,45254
            627            627        128,749       -6,46665
            628            628        129,082       -6,48129
            629            629        129,414        -6,4974
            630            630        129,746       -6,51384
            631            631        130,079        -6,5311
            632            632        130,411       -6,54901
            633            633        130,743       -6,56819
            634            634        131,076       -6,58851
            635            635        131,408       -6,61038
            636            636        131,740        -6,6331
            637            637        132,072       -6,65833
            638            638        132,404       -6,68484
            639            639        132,736       -6,71288
            640            640        133,067       -6,74196
            641            641        133,399       -6,77396
            642            642        133,731       -6,80728
            643            643        134,062       -6,84244
            644            644        134,394       -6,87884
            645            645        134,726       -6,91636
            646            646        135,057       -6,95431
            647            647        135,388       -6,99365
            648            648        135,720       -7,03331
            649            649        136,051       -7,07424
            650            650        136,383       -7,11472
            651            651        136,714       -7,15494
            652            652        137,045       -7,19528
            653            653        137,377       -7,23555
            654            654        137,708       -7,27523
            655            655        138,039       -7,31349
            656            656        138,371       -7,35136
            657            657        138,702       -7,38787
            658            658        139,034       -7,42458
            659            659        139,365       -7,46135
            660            660        139,697       -7,49835
            661            661        140,028       -7,53442
            662            662        140,360       -7,57113
            663            663        140,691       -7,60929
            664            664        141,022       -7,64844
            665            665        141,354       -7,69154
            666            666        141,685       -7,73647
            667            667        142,016       -7,78529
            668            668        142,346       -7,83907
            669            669        142,677       -7,90424
            670            670        143,007       -7,97324
            671            671        143,337       -8,04681
            672            672        143,667       -8,12359
            673            673        143,996       -8,21115
            674            674        144,325       -8,30537
            675            675        144,654       -8,40736
            676            676        144,982       -8,51418
            677            677        145,310        -8,6339
            678            678        145,638       -8,76249
            679            679        145,965       -8,90462
            680            680        146,291        -9,0578
            681            681        146,617       -9,23584
            682            682        146,942       -9,41372
            683            683        147,268         -9,583
            684            684        147,594       -9,74459
            685            685        147,921       -9,88386
            686            686        148,249       -9,99535
            687            687        148,579       -10,0675
            688            688        148,910       -10,1139
            689            689        149,243       -10,1107
            690            690        149,577       -10,0773
            691            691        149,913       -9,99957
            692            692        150,251       -9,89024
            693            693        150,591       -9,71777
            694            694        150,932        -9,5201
            695            695        151,274       -9,29626
            696            696        151,617       -9,05685
            697            697        151,962       -8,79118
            698            698        152,306       -8,52283
            699            699        152,650       -8,25982
            700            700        152,994       -8,00409
            701            701        153,336       -7,77417
            702            702        153,678       -7,56042
            703            703        154,020       -7,36588
            704            704        154,360       -7,18453
            705            705        154,700       -7,03323
            706            706        155,039       -6,89508
            707            707        155,377       -6,77097
            708            708        155,715       -6,65625
            709            709        156,052       -6,56186
            710            710        156,389       -6,47628
            711            711        156,725       -6,39967
            712            712        157,061       -6,32954
            713            713        157,396       -6,27462
            714            714        157,732        -6,2253
            715            715        158,067       -6,17933
            716            716        158,402       -6,13536
            717            717        158,736       -6,09565
            718            718        159,071        -6,0575
            719            719        159,406       -6,02124
            720            720        159,740       -5,98595
            721            721        160,074       -5,95724
            722            722        160,409       -5,92975
            723            723        160,743       -5,90397
            724            724        161,077       -5,87951
            725            725        161,411        -5,8579
            726            726        161,745       -5,83758
            727            727        162,079       -5,81896
            728            728        162,413       -5,80145
            729            729        162,746       -5,78612
            730            730        163,080       -5,77184
            731            731        163,414       -5,75868
            732            732        163,747       -5,74565
            733            733        164,081       -5,73533
            734            734        164,414       -5,72667
            735            735        164,748       -5,71978
            736            736        165,081       -5,71394
            737            737        165,414        -5,7092
            738            738        165,747       -5,70406
            739            739        166,081       -5,69864
            740            740        166,414       -5,69316
            741            741        166,747       -5,68788
            742            742        167,081       -5,68235
            743            743        167,414       -5,67607
            744            744        167,747       -5,66909
            745            745        168,081       -5,66188
            746            746        168,414       -5,65424
            747            747        168,748       -5,64512
            748            748        169,081       -5,63487
            749            749        169,415        -5,6243
            750            750        169,748       -5,61436
            751            751        170,082       -5,60443
            752            752        170,415        -5,5947
            753            753        170,749       -5,58578
            754            754        171,082       -5,57679
            755            755        171,416       -5,56851
            756            756        171,749       -5,56072
            757            757        172,082       -5,55429
            758            758        172,416       -5,54745
            759            759        172,749       -5,54064
            760            760        173,083       -5,53401
            761            761        173,416       -5,52743
            762            762        173,749       -5,52112
            763            763        174,083       -5,51532
            764            764        174,416       -5,50928
            765            765        174,749       -5,50345
            766            766        175,083       -5,49751
            767            767        175,416       -5,49158
            768            768        175,749       -5,48568
            769            769        176,083       -5,47986
            770            770        176,416       -5,47413
            771            771        176,749       -5,46878
            772            772        177,083       -5,46365
            773            773        177,416       -5,45955
            774            774        177,749       -5,45548
            775            775        178,082       -5,45174
            776            776        178,416       -5,44823
            777            777        178,749       -5,44578
            778            778        179,082       -5,44317
            779            779        179,415       -5,44056
            780            780        179,749       -5,43809
            781            781        180,082       -5,43613
            782            782        180,415       -5,43402
            783            783        180,748       -5,43227
            784            784        181,081       -5,43077
            785            785        181,414       -5,42956
            786            786        181,747       -5,42812
            787            787        182,081       -5,42666
            788            788        182,414       -5,42522
            789            789        182,747       -5,42385
            790            790        183,080       -5,42256
            791            791        183,413       -5,42133
            792            792        183,746       -5,42014
            793            793        184,079       -5,41919
            794            794        184,413       -5,41817
            795            795        184,746       -5,41714
            796            796        185,079       -5,41614
            797            797        185,412       -5,41529
            798            798        185,745        -5,4144
            799            799        186,078       -5,41351
            800            800        186,411       -5,41265
            801            801        186,744       -5,41194
            802            802        187,078       -5,41126
            803            803        187,411       -5,41061
            804            804        187,744          -5,41
            805            805        188,077       -5,40962
            806            806        188,410       -5,40914
            807            807        188,743       -5,40863
            808            808        189,076        -5,4081
            809            809        189,409       -5,40755
            810            810        189,743       -5,40698
            811            811        190,076       -5,40635
            812            812        190,409       -5,40572
            813            813        190,742       -5,40499
            814            814        191,075       -5,40431
            815            815        191,408       -5,40363
            816            816        191,741       -5,40295
            817            817        192,074       -5,40245
            818            818        192,407         -5,402
            819            819        192,741       -5,40162
            820            820        193,074       -5,40131
            821            821        193,407       -5,40125
            822            822        193,740       -5,40108
            823            823        194,073       -5,40089
            824            824        194,406       -5,40073
            825            825        194,739       -5,40074
            826            826        195,072       -5,40076
            827            827        195,405       -5,40088
            828            828        195,738       -5,40103
            829            829        196,071       -5,40142
            830            830        196,405       -5,40169
            831            831        196,738        -5,4019
            832            832        197,071       -5,40212
            833            833        197,404        -5,4024
            834            834        197,737       -5,40266
            835            835        198,070       -5,40285
            836            836        198,403       -5,40292
            837            837        198,736       -5,41259
            838            838        199,066       -5,47714
            839            839        199,391       -5,63796
            840            840        199,714       -5,84458
            841            841        199,383       -5,79309
            842            842        199,064       -5,50813
            843            843        198,759       -4,93587
            844            844        198,462       -4,18597
            845            845        198,178       -3,18467
            846            846        197,895       -2,15885
            847            847        197,611       -1,15155
            848            848        197,325      -0,176205
            849            849        197,033       0,673699
            850            850        196,737        1,44704
            851            851        196,437        2,13253
            852            852        196,134        2,75843
            853            853        195,824        3,25593
            854            854        195,512        3,69643
            855            855        195,197         4,0772
            856            856        194,880        4,41979
            857            857        194,559        4,68601
            858            858        194,237        4,91996
            859            859        193,913        5,12021
            860            860        193,588        5,29972
            861            861        193,261        5,43781
            862            862        192,933        5,55889
            863            863        192,605        5,66231
            864            864        192,276        5,75491
            865            865        191,945        5,82634
            866            866        191,615        5,88882
            867            867        191,284        5,94212
            868            868        190,952        5,99007
            869            869        190,621        6,02546
            870            870        190,288        6,05699
            871            871        189,956         6,0843
            872            872        189,624        6,10879
            873            873        189,291          6,126
            874            874        188,958        6,14146
            875            875        188,625        6,15464
            876            876        188,292        6,16629
            877            877        187,959        6,17488
            878            878        187,626        6,18258
            879            879        187,292        6,18891
            880            880        186,959        6,19444
            881            881        186,625        6,19773
            882            882        186,292        6,20094
            883            883        185,958        6,20346
            884            884        185,625        6,20584
            885            885        185,291        6,20737
            886            886        184,958          6,209
            887            887        184,624         6,2099
            888            888        184,291        6,21014
            889            889        183,957        6,20957
            890            890        183,623        6,20935
            891            891        183,290        6,20898
            892            892        182,956        6,20845
            893            893        182,622         6,2074
            894            894        182,289        6,20654
            895            895        181,955        6,20562
            896            896        181,621        6,20459
            897            897        181,288        6,20325
            898            898        180,954        6,20203
            899            899        180,620         6,2008
            900            900        180,287        6,19953
            901            901        179,953        6,19805
            902            902        179,619        6,19663
            903            903        179,286        6,19518
            904            904        178,952        6,19369
            905            905        178,618        6,19197
            906            906        178,285         6,1903
            907            907        177,951        6,18859
            908            908        177,617        6,18682
            909            909        177,283        6,18489
            910            910        176,950        6,18304
            911            911        176,616        6,18119
            912            912        176,282        6,17931
            913            913        175,949        6,17744
            914            914        175,615        6,17557
            915            915        175,281        6,17362
            916            916        174,947        6,17164
            917            917        174,614        6,16954
            918            918        174,280        6,16742
            919            919        173,946        6,16527
            920            920        173,613         6,1631
            921            921        173,279        6,16066
            922            922        172,945        6,15835
            923            923        172,611        6,15601
            924            924        172,278        6,15362
            925            925        171,944          6,151
            926            926        171,610        6,14839
            927            927        171,276        6,14578
            928            928        170,943        6,14317
            929            929        170,609        6,14029
            930            930        170,275        6,13744
            931            931        169,941        6,13449
            932            932        169,608        6,13147
            933            933        169,274        6,12819
            934            934        168,940        6,12484
            935            935        168,606         6,1213
            936            936        168,273        6,11764
            937            937        167,939         6,1135
            938            938        167,605        6,10949
            939            939        167,271        6,10538
            940            940        166,937        6,10118
            941            941        166,604        6,09661
            942            942        166,270        6,09215
            943            943        165,936        6,08762
            944            944        165,602        6,08303
            945            945        165,268        6,07821
            946            946        164,934        6,07347
            947            947        164,601        6,06868
            948            948        164,267        6,06385
            949            949        163,933        6,05899
            950            950        163,599        6,05415
            951            951        163,265        6,04931
            952            952        162,931        6,04451
            953            953        162,598         6,0399
            954            954        162,264        6,03527
            955            955        161,930        6,03066
            956            956        161,596        6,02606
            957            957        161,262        6,02178
            958            958        160,928        6,01747
            959            959        160,595         6,0133
            960            960        160,261        6,00921
            961            961        159,927        6,00541
            962            962        159,593        6,00146
            963            963        159,259        5,99742
            964            964        158,926        5,99334
            965            965        158,592         5,9894
            966            966        158,258        5,98546
            967            967        157,924         5,9816
            968            968        157,590        5,97788
            969            969        157,257        5,97442
            970            970        156,923        5,97107
            971            971        156,589        5,96787
            972            972        156,255        5,96478
            973            973        155,922        5,96226
            974            974        155,588         5,9596
            975            975        155,254        5,95696
            976            976        154,920        5,95429
            977            977        154,587        5,95184
            978            978        154,253        5,94927
            979            979        153,919        5,94664
            980            980        153,586        5,94395
            981            981        153,252        5,94115
            982            982        152,918        5,93843
            983            983        152,584        5,93579
            984            984        152,251        5,93326
            985            985        151,917        5,93085
            986            986        151,583        5,92847
            987            987        151,249        5,92642
            988            988        150,916        5,92461
            989            989        150,582        5,92367
            990            990        150,248        5,92263
            991            991        149,915        5,92232
            992            992        149,581        5,92248
            993            993        149,248          5,924
            994            994        148,914        5,92568
            995            995        148,580        5,92796
            996            996        148,247        5,93072
            997            997        147,914         5,9345
            998            998        147,580        5,93927
            999            999        147,247        5,94442
           1000           1000        146,913        5,94957
           1001           1001        146,580        5,95579
           1002           1002        146,246        5,96165
           1003           1003        145,913        5,96749
           1004           1004        145,580        5,97335
           1005           1005        145,246        5,97935
           1006           1006        144,913        5,98507
           1007           1007        144,580        5,99068
           1008           1008        144,246         5,9964
           1009           1009        143,913        6,00137
           1010           1010        143,579        6,00585
           1011           1011        143,246        6,00978
           1012           1012        142,912        6,01371
           1013           1013        142,579        6,01644
           1014           1014        142,245        6,01953
           1015           1015        141,912        6,02247
           1016           1016        141,578        6,02523
           1017           1017        141,245        6,02732
           1018           1018        140,911         6,0295
           1019           1019        140,578        6,03159
           1020           1020        140,244        6,03361
           1021           1021        139,910        6,03519
           1022           1022        139,577        6,03704
           1023           1023        139,243        6,03893
           1024           1024        138,910        6,04085
           1025           1025        138,576        6,04287
           1026           1026        138,243        6,04488
           1027           1027        137,909         6,0469
           1028           1028        137,576        6,04896
           1029           1029        137,242        6,05098
           1030           1030        136,908        6,05293
           1031           1031        136,575        6,05477
           1032           1032        136,241        6,05652
           1033           1033        135,908        6,05797
           1034           1034        135,574        6,05944
           1035           1035        135,241        6,06085
           1036           1036        134,907        6,06218
           1037           1037        134,573        6,06301
           1038           1038        134,240        6,06387
           1039           1039        133,906        6,06467
           1040           1040        133,572         6,0654
           1041           1041        133,239        6,06569
           1042           1042        132,905        6,06607
           1043           1043        132,572        6,06637
           1044           1044        132,238        6,06656
           1045           1045        131,904         6,0665
           1046           1046        131,571        6,06653
           1047           1047        131,237        6,06661
           1048           1048        130,903         6,0667
           1049           1049        130,570        6,06632
           1050           1050        130,236        6,06593
           1051           1051        129,902        6,06554
           1052           1052        129,569        6,06511
           1053           1053        129,235        6,06439
           1054           1054        128,901        6,06384
           1055           1055        128,568        6,06323
           1056           1056        128,234         6,0625
           1057           1057        127,900        6,06167
           1058           1058        127,567        6,06069
           1059           1059        127,233        6,05953
           1060           1060        126,899        6,05825
           1061           1061        126,566        6,05634
           1062           1062        126,232        6,05461
           1063           1063        125,898        6,05246
           1064           1064        125,564        6,05002
           1065           1065        125,231        6,04694
           1066           1066        124,897        6,04353
           1067           1067        124,563        6,03957
           1068           1068        124,229        6,03484
           1069           1069        123,895        6,02978
           1070           1070        123,562         6,0251
           1071           1071        123,228        6,02046
           1072           1072        122,894        6,01574
           1073           1073        122,560        6,01171
           1074           1074        122,226         6,0074
           1075           1075        121,893         6,0035
           1076           1076        121,559        6,00037
           1077           1077        121,225         5,9979
           1078           1078        120,891        5,99534
           1079           1079        120,558        5,99319
           1080           1080        120,224        5,99195
           1081           1081        119,890        5,99133
           1082           1082        119,557        5,99072
           1083           1083        119,223        5,99087
           1084           1084        118,889        5,99116
           1085           1085        118,556        5,99242
           1086           1086        118,222        5,99375
           1087           1087        117,888        5,99542
           1088           1088        117,555        5,99738
           1089           1089        117,221        5,99992
           1090           1090        116,888        6,00223
           1091           1091        116,554        6,00458
           1092           1092        116,221        6,00702
           1093           1093        115,887        6,00982
           1094           1094        115,554        6,01238
           1095           1095        115,220        6,01487
           1096           1096        114,886        6,01732
           1097           1097        114,553        6,01953
           1098           1098        114,219        6,02166
           1099           1099        113,886        6,02367
           1100           1100        113,552        6,02565
           1101           1101        113,219        6,02702
           1102           1102        112,885        6,02839
           1103           1103        112,551        6,02973
           1104           1104        112,218        6,03105
           1105           1105        111,884        6,03207
           1106           1106        111,550        6,03341
           1107           1107        111,217        6,03482
           1108           1108        110,883        6,03625
           1109           1109        110,550         6,0378
           1110           1110        110,216        6,03928
           1111           1111        109,882        6,04076
           1112           1112        109,549        6,04215
           1113           1113        109,215        6,04324
           1114           1114        108,882        6,04448
           1115           1115        108,548        6,04568
           1116           1116        108,214        6,04685
           1117           1117        107,881        6,04532
           1118           1118        107,547        6,04292
           1119           1119        107,213        6,03987
           1120           1120        106,879        6,03623
           1121           1121        106,546        6,03112
           1122           1122        106,212        6,02573
           1123           1123        105,878        6,01905
           1124           1124        105,544        6,01197
           1125           1125        105,210        6,00438
           1126           1126        104,876        5,99719
           1127           1127        104,542        5,99007
           1128           1128        104,208        5,98299
           1129           1129        103,874        5,97611
           1130           1130        103,541        5,96913
           1131           1131        103,207        5,96245
           1132           1132        102,873        5,95634
           1133           1133        102,539        5,95176
           1134           1134        102,205        5,94752
           1135           1135        101,871        5,94408
           1136           1136        101,538        5,94129
           1137           1137        101,204        5,94005
           1138           1138        100,870        5,93904
           1139           1139        100,537        5,93882
           1140           1140        100,203        5,93916
           1141           1141         99,869        5,94098
           1142           1142         99,536        5,94313
           1143           1143         99,202        5,94598
           1144           1144         98,869         5,9495
           1145           1145         98,535        5,95371
           1146           1146         98,202        5,95798
           1147           1147         97,868         5,9626
           1148           1148         97,535        5,96734
           1149           1149         97,201        5,97234
           1150           1150         96,868        5,97753
           1151           1151         96,534        5,98328
           1152           1152         96,201        5,98902
           1153           1153         95,867        5,99487
           1154           1154         95,534        6,00054
           1155           1155         95,200        6,00608
           1156           1156         94,867         6,0115
           1157           1157         94,533        6,01652
           1158           1158         94,200        6,02162
           1159           1159         93,866        6,02662
           1160           1160         93,533        6,03129
           1161           1161         93,199        6,03509
           1162           1162         92,866        6,03887
           1163           1163         92,532        6,04243
           1164           1164         92,199         6,0458
           1165           1165         91,865        6,04795
           1166           1166         91,531         6,0505
           1167           1167         91,198        6,05303
           1168           1168         90,864        6,05518
           1169           1169         90,531        6,05629
           1170           1170         90,197        6,05775
           1171           1171         89,863        6,05913
           1172           1172         89,530        6,06042
           1173           1173         89,196        6,06111
           1174           1174         88,862        6,06185
           1175           1175         88,529        6,06244
           1176           1176         88,195        6,06291
           1177           1177         87,861        6,06286
           1178           1178         87,528        6,06297
           1179           1179         87,194          6,063
           1180           1180         86,860        6,06305
           1181           1181         86,527        6,06273
           1182           1182         86,193        6,06251
           1183           1183         85,859        6,06223
           1184           1184         85,526        6,06189
           1185           1185         85,192        6,06142
           1186           1186         84,858        6,06105
           1187           1187         84,525        6,06071
           1188           1188         84,191        6,06038
           1189           1189         83,857        6,06002
           1190           1190         83,524        6,05965
           1191           1191         83,190        6,05931
           1192           1192         82,856        6,05899
           1193           1193         82,523        6,05863
           1194           1194         82,189        6,05831
           1195           1195         81,855        6,05809
           1196           1196         81,522         6,0579
           1197           1197         81,188        6,05769
           1198           1198         80,854        6,05746
           1199           1199         80,521        6,05725
           1200           1200         80,187        6,05704
           1201           1201         79,853        6,05685
           1202           1202         79,519         6,0566
           1203           1203         79,186        6,05636
           1204           1204         78,852        6,05615
           1205           1205         78,518        6,05601
           1206           1206         78,185        6,05597
           1207           1207         77,851        6,05597
           1208           1208         77,517        6,05599
           1209           1209         77,184        6,05624
           1210           1210         76,850        6,05641
           1211           1211         76,516        6,05655
           1212           1212         76,183        6,05666
           1213           1213         75,849        6,05686
           1214           1214         75,515        6,05704
           1215           1215         75,182        6,05722
           1216           1216         74,848         6,0574
           1217           1217         74,514        6,05753
           1218           1218         74,181         6,0576
           1219           1219         73,847        6,05762
           1220           1220         73,513        6,05762
           1221           1221         73,180        6,05733
           1222           1222         72,846        6,05702
           1223           1223         72,512        6,05669
           1224           1224         72,179        6,05633
           1225           1225         71,845        6,05568
           1226           1226         71,511        6,05513
           1227           1227         71,177        6,05462
           1228           1228         70,844        6,05414
           1229           1229         70,510        6,05379
           1230           1230         70,176        6,05347
           1231           1231         69,843        6,05316
           1232           1232         69,509        6,05282
           1233           1233         69,175        6,05282
           1234           1234         68,842        6,05274
           1235           1235         68,508        6,05266
           1236           1236         68,174        6,05258
           1237           1237         67,841        6,05286
           1238           1238         67,507        6,05317
           1239           1239         67,173        6,05364
           1240           1240         66,840        6,05425
           1241           1241         66,506        6,05537
           1242           1242         66,172        6,05637
           1243           1243         65,839        6,05743
           1244           1244         65,505        6,05854
           1245           1245         65,171        6,06003
           1246           1246         64,838        6,06146
           1247           1247         64,504        6,06298
           1248           1248         64,170        6,06456
           1249           1249         63,837        6,06613
           1250           1250         63,503        6,06753
           1251           1251         63,170        6,06897
           1252           1252         62,836        6,07044
           1253           1253         62,502         6,0719
           1254           1254         62,169         6,0735
           1255           1255         61,835         6,0752
           1256           1256         61,501        6,07682
           1257           1257         61,168        6,07933
           1258           1258         60,834        6,08136
           1259           1259         60,500        6,08322
           1260           1260         60,167        6,08499
           1261           1261         59,833        6,08655
           1262           1262         59,500        6,08806
           1263           1263         59,166        6,08947
           1264           1264         58,832        6,09052
           1265           1265         58,499        6,09115
           1266           1266         58,165        6,09183
           1267           1267         57,831        6,09241
           1268           1268         57,498        6,09294
           1269           1269         57,164        6,09315
           1270           1270         56,830        6,09346
           1271           1271         56,497        6,09377
           1272           1272         56,163        6,09409
           1273           1273         55,829        6,09448
           1274           1274         55,496        6,09483
           1275           1275         55,162        6,09506
           1276           1276         54,828        6,09519
           1277           1277         54,495        6,09518
           1278           1278         54,161        6,09515
           1279           1279         53,827        6,09498
           1280           1280         53,494        6,09476
           1281           1281         53,160        6,09419
           1282           1282         52,826        6,09371
           1283           1283         52,493        6,09329
           1284           1284         52,159        6,09289
           1285           1285         51,825        6,09185
           1286           1286         51,491        6,08964
           1287           1287         51,158        6,08655
           1288           1288         50,824        6,08339
           1289           1289         50,490         6,0802
           1290           1290         50,156        6,07656
           1291           1291         49,823        6,07162
           1292           1292         49,489        6,06588
           1293           1293         49,155        6,05925
           1294           1294         48,821        6,05229
           1295           1295         48,487        6,04471
           1296           1296         48,153        6,03654
           1297           1297         47,819        6,02736
           1298           1298         47,485        6,01709
           1299           1299         47,152        6,00549
           1300           1300         46,818        5,99297
           1301           1301         46,484         5,9782
           1302           1302         46,149        5,96243
           1303           1303         45,815        5,94544
           1304           1304         45,481        5,92796
           1305           1305         45,147        5,91037
           1306           1306         44,813        5,89231
           1307           1307         44,479        5,87283
           1308           1308         44,145        5,85249
           1309           1309         43,810        5,81847
           1310           1310         43,476        5,79462
           1311           1311         43,142        5,77388
           1312           1312         42,808        5,75376
           1313           1313         42,474        5,73429
           1314           1314         42,139        5,71427
           1315           1315         41,805        5,69445
           1316           1316         41,471         5,6748
           1317           1317         41,137        5,65541
           1318           1318         40,803        5,63605
           1319           1319         40,469        5,61674
           1320           1320         40,135        5,59772
           1321           1321         39,801        5,57964
           1322           1322         39,467        5,56155
           1323           1323         39,132        5,54383
           1324           1324         38,798        5,52644
           1325           1325         38,464        5,50955
           1326           1326         38,130         5,4932
           1327           1327         37,796        5,47833
           1328           1328         37,462        5,46387
           1329           1329         37,128        5,45061
           1330           1330         36,794         5,4377
           1331           1331         36,461        5,42618
           1332           1332         36,127        5,41521
           1333           1333         35,793        5,40441
           1334           1334         35,459        5,39419
           1335           1335         35,125        5,38528
           1336           1336         34,791        5,37654
           1337           1337         34,457        5,36851
           1338           1338         34,124        5,35853
           1339           1339         33,789        5,33834
           1340           1340         33,455        5,30566
           1341           1341         33,121        5,29984
           1342           1342         32,788         5,2963
           1343           1343         32,454        5,29302
           1344           1344         32,120        5,28939
           1345           1345         31,786        5,28614
           1346           1346         31,453        5,28259
           1347           1347         31,119        5,27887
           1348           1348         30,785        5,27599
           1349           1349         30,452        5,27429
           1350           1350         30,118        5,27231
           1351           1351         29,784        5,27046
           1352           1352         29,451        5,26892
           1353           1353         29,117        5,26808
           1354           1354         28,783        5,26723
           1355           1355         28,450        5,26658
           1356           1356         28,116        5,26646
           1357           1357         27,783        5,26809
           1358           1358         27,449        5,26947
           1359           1359         27,115        5,27111
           1360           1360         26,782        5,27264
           1361           1361         26,448        5,27485
           1362           1362         26,115        5,27699
           1363           1363         25,781        5,27931
           1364           1364         25,447         5,2817
           1365           1365         25,114        5,28473
           1366           1366         24,780        5,28771
           1367           1367         24,447        5,29076
           1368           1368         24,113        5,29382
           1369           1369         23,780        5,29766
           1370           1370         23,446        5,30117
           1371           1371         23,113        5,30437
           1372           1372         22,779        5,30688
           1373           1373         22,445        5,31388
           1374           1374         22,112        5,31963
           1375           1375         21,778        5,32508
           1376           1376         21,445         5,3307
           1377           1377         21,111        5,33657
           1378           1378         20,778        5,34264
           1379           1379         20,444        5,34931
           1380           1380         20,111        5,35604
           1381           1381         19,777         5,3631
           1382           1382         19,444        5,36997
           1383           1383         19,110        5,37684
           1384           1384         18,777        5,38366
           1385           1385         18,444        5,39279
           1386           1386         18,110        5,40242
           1387           1387         17,777        5,41226
           1388           1388         17,443        5,42233
           1389           1389         17,110        5,43747
           1390           1390         16,777        5,45214
           1391           1391         16,443        5,46662
           1392           1392         16,110        5,48078
           1393           1393         15,776        5,49446
           1394           1394         15,443        5,50803
           1395           1395         15,110        5,52237
           1396           1396         14,776        5,53741
           1397           1397         14,443         5,5524
           1398           1398         14,110        5,56729
           1399           1399         13,776        5,58223
           1400           1400         13,443        5,59746
           1401           1401         13,109        5,58173
           1402           1402         12,776        5,61604
           1403           1403         12,443        5,66952
           1404           1404         12,110        5,69273
           1405           1405         11,776         5,6677
           1406           1406         11,442        5,65403
           1407           1407         11,109        5,65096
           1408           1408         10,775        5,65295
           1409           1409         10,441        5,65753
           1410           1410         10,108        5,66362
           1411           1411          9,774        5,67184
           1412           1412          9,441        5,68169
           1413           1413          9,107        5,69549
           1414           1414          8,774        5,71024
           1415           1415          8,441         5,7254
           1416           1416          8,107        5,74088
           1417           1417          7,774         5,7583
           1418           1418          7,441        5,77522
           1419           1419          7,107        5,79188
           1420           1420          6,774        5,80858
           1421           1421          6,441        5,82533
           1422           1422          6,107        5,84187
           1423           1423          5,774        5,85847
           1424           1424          5,441        5,87503
           1425           1425          5,107        5,89047
           1426           1426          4,774        5,90478
           1427           1427          4,440        5,91798
           1428           1428          4,107        5,93065
           1429           1429          3,773        5,94316
           1430           1430          3,440        5,95524
           1431           1431          3,107        5,96582
           1432           1432          2,773         5,9752
           1433           1433          2,440        5,98366
           1434           1434          2,106        5,99232
           1435           1435          1,773         6,0008
           1436           1436          1,439        6,00884
           1437           1437          1,105        6,01578
           1438           1438          0,772        6,02164
           1439           1439          0,438        6,02643
           1440           1440          0,105        6,03121
           1441           1441         -0,229        6,03476
           1442           1442         -0,563        6,03846
           1443           1443         -0,896        6,04188
           1444           1444         -1,230        6,04505
           1445           1445         -1,563        6,04739
           1446           1446         -1,897           6,05
           1447           1447         -2,231        6,05253
           1448           1448         -2,564        6,05503
           1449           1449         -2,898        6,05739
           1450           1450         -3,232        6,05979
           1451           1451         -3,565         6,0621
           1452           1452         -3,899        6,06445
           1453           1453         -4,232        6,06694
           1454           1454         -4,566        6,06884
           1455           1455         -4,900        6,06969
           1456           1456         -5,233        6,07075
           1457           1457         -5,567        6,07111
           1458           1458         -5,901        6,07169
           1459           1459         -6,234        6,07181
           1460           1460         -6,568        6,07153
           1461           1461         -6,902        6,07113
           1462           1462         -7,235        6,07075
           1463           1463         -7,569        6,06983
           1464           1464         -7,903         6,0681
           1465           1465         -8,237        6,06382
           1466           1466         -8,570        6,05874
           1467           1467         -8,904        6,05331
           1468           1468         -9,238        6,04774
           1469           1469         -9,572        6,04182
           1470           1470         -9,905        6,03533
           1471           1471        -10,239        6,02729
           1472           1472        -10,573        6,01865
           1473           1473        -10,907         6,0096
           1474           1474        -11,241        6,00053
           1475           1475        -11,574        5,99071
           1476           1476        -11,908        5,98026
           1477           1477        -12,242        5,96882
           1478           1478        -12,576        5,95623
           1479           1479        -12,910        5,94405
           1480           1480        -13,244        5,93444
           1481           1481        -13,577        5,92327
           1482           1482        -13,911         5,9111
           1483           1483        -14,245        5,89871
           1484           1484        -14,579        5,88635
           1485           1485        -14,913        5,87411
           1486           1486        -15,247        5,86196
           1487           1487        -15,580        5,84995
           1488           1488        -15,914        5,83837
           1489           1489        -16,248        5,82704
           1490           1490        -16,582        5,81549
           1491           1491        -16,916        5,80418
           1492           1492        -17,250        5,79323
           1493           1493        -17,583        5,78344
           1494           1494        -17,917        5,77544
           1495           1495        -18,251        5,76737
           1496           1496        -18,585         5,7593
           1497           1497        -18,918        5,75375
           1498           1498        -19,252        5,74905
           1499           1499        -19,586         5,7455
           1500           1500        -19,919        5,74257
           1501           1501        -20,253        5,73988
           1502           1502        -20,587        5,73726
           1503           1503        -20,920        5,73476
           1504           1504        -21,254         5,7326
           1505           1505        -21,588         5,7326
           1506           1506        -21,921        5,73362
           1507           1507        -22,255        5,73504
           1508           1508        -22,589        5,73677
           1509           1509        -22,922        5,73857
           1510           1510        -23,256        5,74015
           1511           1511        -23,589        5,74176
           1512           1512        -23,923        5,74327
           1513           1513        -24,257        5,74447
           1514           1514        -24,590        5,74584
           1515           1515        -24,924        5,74723
           1516           1516        -25,258        5,74864
           1517           1517        -25,591        5,74971
           1518           1518        -25,925        5,75123
           1519           1519        -26,258        5,75246
           1520           1520        -26,592         5,7528
           1521           1521        -26,926        5,75302
           1522           1522        -27,259        5,75342
           1523           1523        -27,593        5,75389
           1524           1524        -27,927        5,75428
           1525           1525        -28,260        5,75455
           1526           1526        -28,594        5,75484
           1527           1527        -28,927        5,75503
           1528           1528        -29,261        5,75508
           1529           1529        -29,595        5,75479
           1530           1530        -29,928        5,75464
           1531           1531        -30,262        5,75448
           1532           1532        -30,596        5,75413
           1533           1533        -30,929        5,75346
           1534           1534        -31,263        5,75352
           1535           1535        -31,597        5,75375
           1536           1536        -31,930        5,75224
           1537           1537        -32,264        5,74928
           1538           1538        -32,598        5,74636
           1539           1539        -32,931        5,74358
           1540           1540        -33,265        5,74087
           1541           1541        -33,598         5,7379
           1542           1542        -33,932         5,7349
           1543           1543        -34,266        5,73183
           1544           1544        -34,599        5,72878
           1545           1545        -34,933        5,72551
           1546           1546        -35,267        5,72233
           1547           1547        -35,600        5,71904
           1548           1548        -35,934        5,71557
           1549           1549        -36,268        5,71054
           1550           1550        -36,601        5,70625
           1551           1551        -36,935        5,70192
           1552           1552        -37,269        5,69734
           1553           1553        -37,602        5,69332
           1554           1554        -37,936        5,69326
           1555           1555        -38,268        5,88407
           1556           1556        -38,595        6,44126
           1557           1557        -38,929        6,44589
           1558           1558        -39,264         6,2498
           1559           1559        -39,600          6,049
           1560           1560        -39,936        5,87796
           1561           1561        -40,271        5,77722
           1562           1562        -40,605        5,69829
           1563           1563        -40,939        5,63928
           1564           1564        -41,273        5,59248
           1565           1565        -41,607        5,56263
           1566           1566        -41,941        5,53766
           1567           1567        -42,275        5,51787
           1568           1568        -42,609        5,49988
           1569           1569        -42,943        5,48605
           1570           1570        -43,276        5,47655
           1571           1571        -43,610        5,46865
           1572           1572        -43,944        5,46133
           1573           1573        -44,277        5,45413
           1574           1574        -44,611        5,44731
           1575           1575        -44,945        5,44168
           1576           1576        -45,278        5,43685
           1577           1577        -45,612        5,43499
           1578           1578        -45,945        5,43444
           1579           1579        -46,279        5,43481
           1580           1580        -46,613        5,43527
           1581           1581        -46,946        5,43554
           1582           1582        -47,280         5,4358
           1583           1583        -47,613        5,43606
           1584           1584        -47,947        5,43626
           1585           1585        -48,281        5,43608
           1586           1586        -48,614        5,43353
           1587           1587        -48,948        5,43284
           1588           1588        -49,281        5,43624
           1589           1589        -49,615        5,43813
           1590           1590        -49,949        5,43947
           1591           1591        -50,282        5,43925
           1592           1592        -50,616        5,43931
           1593           1593        -50,949        5,43898
           1594           1594        -51,283        5,43816
           1595           1595        -51,617        5,43599
           1596           1596        -51,950        5,43338
           1597           1597        -52,284        5,43554
           1598           1598        -52,617        5,43629
           1599           1599        -52,951        5,43594
           1600           1600        -53,285        5,43554
           1601           1601        -53,618        5,43563
           1602           1602        -53,952         5,4358
           1603           1603        -54,285          5,436
           1604           1604        -54,619         5,4366
           1605           1605        -54,952        5,43808
           1606           1606        -55,286        5,43946
           1607           1607        -55,620        5,44123
           1608           1608        -55,953        5,44389
           1609           1609        -56,287          5,447
           1610           1610        -56,620        5,45053
           1611           1611        -56,954        5,45423
           1612           1612        -57,287        5,45814
           1613           1613        -57,621        5,46244
           1614           1614        -57,954        5,46695
           1615           1615        -58,288        5,47012
           1616           1616        -58,622        5,46952
           1617           1617        -58,955        5,47584
           1618           1618        -59,289        5,48063
           1619           1619        -59,622        5,48313
           1620           1620        -59,956        5,48692
           1621           1621        -60,289        5,48948
           1622           1622        -60,623        5,49221
           1623           1623        -60,957         5,4958
           1624           1624        -61,290        5,50129
           1625           1625        -61,624        5,50478
           1626           1626        -61,957        5,50539
           1627           1627        -62,291        5,50754
           1628           1628        -62,624        5,50959
           1629           1629        -62,958        5,51147
           1630           1630        -63,291        5,51387
           1631           1631        -63,625        5,51757
           1632           1632        -63,959        5,52192
           1633           1633        -64,292         5,5256
           1634           1634        -64,626        5,53048
           1635           1635        -64,959        5,53441
           1636           1636        -65,293        5,53463
           1637           1637        -65,626        5,53326
           1638           1638        -65,960        5,53509
           1639           1639        -66,294        5,53766
           1640           1640        -66,627        5,54037
           1641           1641        -66,961         5,5386
           1642           1642        -67,294         5,5397
           1643           1643        -67,628        5,54152
           1644           1644        -67,961         5,5435
           1645           1645        -68,295        5,53945
           1646           1646        -68,629        5,53437
           1647           1647        -68,962        5,52751
           1648           1648        -69,296        5,51944
           1649           1649        -69,630        5,50852
           1650           1650        -69,963        5,49925
           1651           1651        -70,297        5,49318
           1652           1652        -70,630        5,48536
           1653           1653        -70,964        5,47058
           1654           1654        -71,298        5,45665
           1655           1655        -71,631        5,44413
           1656           1656        -71,965        5,43271
           1657           1657        -72,299        5,42314
           1658           1658        -72,632        5,41265
           1659           1659        -72,966        5,40029
           1660           1660        -73,300        5,38824
           1661           1661        -73,633        5,37587
           1662           1662        -73,967        5,36388
           1663           1663        -74,301        5,35175
           1664           1664        -74,634        5,33896
           1665           1665        -74,968        5,32576
           1666           1666        -75,301         5,3158
           1667           1667        -75,635         5,3055
           1668           1668        -75,969        5,29324
           1669           1669        -76,302        5,26945
           1670           1670        -76,636        5,25265
           1671           1671        -76,970        5,24157
           1672           1672        -77,303        5,23132
           1673           1673        -77,637         5,2192
           1674           1674        -77,971        5,20584
           1675           1675        -78,304        5,19307
           1676           1676        -78,638        5,18341
           1677           1677        -78,971        5,16286
           1678           1678        -79,305        5,07452
           1679           1679        -79,640        4,85782
           1680           1680        -79,975        4,63429
           1681           1681        -79,641         4,7333
           1682           1682        -79,306        4,98046
           1683           1683        -78,971        5,31274
           1684           1684        -78,635        5,59821
           1685           1685        -78,303         5,3692
           1686           1686        -77,972        4,85595
           1687           1687        -77,643         4,0959
           1688           1688        -77,315         3,2131
           1689           1689        -76,987        2,24232
           1690           1690        -76,659        1,30527
           1691           1691        -76,331       0,431314
           1692           1692        -76,002      -0,395045
           1693           1693        -75,673       -1,08374
           1694           1694        -75,344       -1,70358
           1695           1695        -75,014       -2,24892
           1696           1696        -74,683       -2,74783
           1697           1697        -74,353       -3,13948
           1698           1698        -74,022        -3,4901
           1699           1699        -73,690       -3,79322
           1700           1700        -73,359       -4,06565
           1701           1701        -73,027       -4,28013
           1702           1702        -72,695       -4,46411
           1703           1703        -72,363       -4,62282
           1704           1704        -72,031       -4,76616
           1705           1705        -71,698       -4,87482
           1706           1706        -71,366       -4,96936
           1707           1707        -71,033       -5,04718
           1708           1708        -70,701       -5,11763
           1709           1709        -70,368       -5,17121
           1710           1710        -70,035       -5,21783
           1711           1711        -69,702       -5,25789
           1712           1712        -69,369       -5,29304
           1713           1713        -69,036       -5,31432
           1714           1714        -68,703       -5,33415
           1715           1715        -68,370       -5,35179
           1716           1716        -68,037       -5,36793
           1717           1717        -67,704       -5,37595
           1718           1718        -67,371       -5,38209
           1719           1719        -67,038       -5,38566
           1720           1720        -66,705       -5,39096
           1721           1721        -66,372       -5,38948
           1722           1722        -66,039       -5,38949
           1723           1723        -65,706       -5,39035
           1724           1724        -65,373       -5,38577
           1725           1725        -65,040       -5,37796
           1726           1726        -64,706       -5,37135
           1727           1727        -64,373       -5,36685
           1728           1728        -64,040       -5,36221
           1729           1729        -63,707       -5,35576
           1730           1730        -63,374       -5,34945
           1731           1731        -63,041       -5,34346
           1732           1732        -62,708       -5,33745
           1733           1733        -62,375       -5,33158
           1734           1734        -62,041       -5,32567
           1735           1735        -61,708       -5,31975
           1736           1736        -61,375       -5,31385
           1737           1737        -61,042       -5,30806
           1738           1738        -60,709       -5,30146
           1739           1739        -60,376       -5,29297
           1740           1740        -60,043       -5,28473
           1741           1741        -59,709       -5,27885
           1742           1742        -59,376       -5,27218
           1743           1743        -59,043       -5,26425
           1744           1744        -58,710       -5,25893
           1745           1745        -58,377       -5,25366
           1746           1746        -58,044       -5,24678
           1747           1747        -57,711       -5,23792
           1748           1748        -57,377       -5,23114
           1749           1749        -57,044       -5,22602
           1750           1750        -56,711       -5,22342
           1751           1751        -56,378       -5,21919
           1752           1752        -56,045       -5,21466
           1753           1753        -55,712       -5,20885
           1754           1754        -55,379       -5,20201
           1755           1755        -55,045        -5,1966
           1756           1756        -54,712       -5,18765
           1757           1757        -54,379         -5,178
           1758           1758        -54,046       -5,17146
           1759           1759        -53,713       -5,16444
           1760           1760        -53,380       -5,15956
           1761           1761        -53,046       -5,15101
           1762           1762        -52,713       -5,14288
           1763           1763        -52,380       -5,13571
           1764           1764        -52,047       -5,12933
           1765           1765        -51,714       -5,12399
           1766           1766        -51,381       -5,11871
           1767           1767        -51,048       -5,11366
           1768           1768        -50,714       -5,10888
           1769           1769        -50,381       -5,10451
           1770           1770        -50,048        -5,0999
           1771           1771        -49,715       -5,09502
           1772           1772        -49,382       -5,08961
           1773           1773        -49,049       -5,08672
           1774           1774        -48,716       -5,08284
           1775           1775        -48,383       -5,07875
           1776           1776        -48,049       -5,07479
           1777           1777        -47,716        -5,0701
           1778           1778        -47,383       -5,06558
           1779           1779        -47,050       -5,06035
           1780           1780        -46,717       -5,05423
           1781           1781        -46,384       -5,05302
           1782           1782        -46,051       -5,05041
           1783           1783        -45,718       -5,04542
           1784           1784        -45,384       -5,04066
           1785           1785        -45,051       -5,03626
           1786           1786        -44,718       -5,03201
           1787           1787        -44,385       -5,02757
           1788           1788        -44,052       -5,02313
           1789           1789        -43,719       -5,01848
           1790           1790        -43,386       -5,01614
           1791           1791        -43,053       -5,01397
           1792           1792        -42,719       -5,01127
           1793           1793        -42,386        -5,0085
           1794           1794        -42,053       -5,00584
           1795           1795        -41,720       -5,00323
           1796           1796        -41,387       -5,00058
           1797           1797        -41,054       -4,99874
           1798           1798        -40,721       -4,99665
           1799           1799        -40,388       -4,99449
           1800           1800        -40,055       -4,99238
           1801           1801        -39,721        -4,9905
           1802           1802        -39,388       -4,98798
           1803           1803        -39,055       -4,98586
           1804           1804        -38,722       -4,98644
           1805           1805        -38,389       -4,98787
           1806           1806        -38,056       -4,98662
           1807           1807        -37,723       -4,98724
           1808           1808        -37,390        -4,9881
           1809           1809        -37,057       -4,98906
           1810           1810        -36,724       -4,98987
           1811           1811        -36,391       -4,99073
           1812           1812        -36,058       -4,99129
           1813           1813        -35,724       -4,99353
           1814           1814        -35,391       -4,99512
           1815           1815        -35,058       -4,99698
           1816           1816        -34,725       -4,99929
           1817           1817        -34,392       -5,00267
           1818           1818        -34,059       -5,00677
           1819           1819        -33,726       -5,01128
           1820           1820        -33,393       -5,01641
           1821           1821        -33,060       -5,02139
           1822           1822        -32,727       -5,02606
           1823           1823        -32,394       -5,03104
           1824           1824        -32,061       -5,03655
           1825           1825        -31,728       -5,04128
           1826           1826        -31,395        -5,0442
           1827           1827        -31,062       -5,04853
           1828           1828        -30,729       -5,05093
           1829           1829        -30,396       -5,05891
           1830           1830        -30,063       -5,06455
           1831           1831        -29,730       -5,06942
           1832           1832        -29,397       -5,07432
           1833           1833        -29,064       -5,07874
           1834           1834        -28,731       -5,08333
           1835           1835        -28,398       -5,08782
           1836           1836        -28,065       -5,09235
           1837           1837        -27,732       -5,09618
           1838           1838        -27,399        -5,1003
           1839           1839        -27,066       -5,10398
           1840           1840        -26,733        -5,1068
           1841           1841        -26,400       -5,10953
           1842           1842        -26,067       -5,11152
           1843           1843        -25,734        -5,1118
           1844           1844        -25,401       -5,11172
           1845           1845        -25,068       -5,11027
           1846           1846        -24,735       -5,10859
           1847           1847        -24,401       -5,10542
           1848           1848        -24,068       -5,10117
           1849           1849        -23,735       -5,09466
           1850           1850        -23,402       -5,08734
           1851           1851        -23,069       -5,07982
           1852           1852        -22,736       -5,07235
           1853           1853        -22,403       -5,06406
           1854           1854        -22,069       -5,05418
           1855           1855        -21,736       -5,04298
           1856           1856        -21,403       -5,03173
           1857           1857        -21,070       -5,02023
           1858           1858        -20,736       -5,00934
           1859           1859        -20,403       -5,00015
           1860           1860        -20,070       -4,99205
           1861           1861        -19,737       -4,98683
           1862           1862        -19,404        -4,9814
           1863           1863        -19,071       -4,97632
           1864           1864        -18,738       -4,97146
           1865           1865        -18,404       -4,97123
           1866           1866        -18,071       -4,97042
           1867           1867        -17,738       -4,96936
           1868           1868        -17,405       -4,96811
           1869           1869        -17,072        -4,9669
           1870           1870        -16,739       -4,96575
           1871           1871        -16,406       -4,96466
           1872           1872        -16,073       -4,96373
           1873           1873        -15,740       -4,96132
           1874           1874        -15,407       -4,95911
           1875           1875        -15,074       -4,95666
           1876           1876        -14,741       -4,95429
           1877           1877        -14,407       -4,95161
           1878           1878        -14,074       -4,94896
           1879           1879        -13,741       -4,94591
           1880           1880        -13,408       -4,94233
           1881           1881        -13,075       -4,93904
           1882           1882        -12,742       -4,93595
           1883           1883        -12,409       -4,93299
           1884           1884        -12,076        -4,9301
           1885           1885        -11,743       -4,92799
           1886           1886        -11,409       -4,92559
           1887           1887        -11,076       -4,92322
           1888           1888        -10,743        -4,9211
           1889           1889        -10,410       -4,91968
           1890           1890        -10,077       -4,91787
           1891           1891         -9,744       -4,91607
           1892           1892         -9,411        -4,9143
           1893           1893         -9,078       -4,91283
           1894           1894         -8,745       -4,91104
           1895           1895         -8,412       -4,90934
           1896           1896         -8,079       -4,90857
           1897           1897         -7,746       -4,90973
           1898           1898         -7,413       -4,91166
           1899           1899         -7,080       -4,91484
           1900           1900         -6,747       -4,91886
           1901           1901         -6,414       -4,92287
           1902           1902         -6,081       -4,92669
           1903           1903         -5,748       -4,93017
           1904           1904         -5,415       -4,93362
           1905           1905         -5,082       -4,93957
           1906           1906         -4,749       -4,94538
           1907           1907         -4,416       -4,95118
           1908           1908         -4,083       -4,95699
           1909           1909         -3,750       -4,96334
           1910           1910         -3,417       -4,96967
           1911           1911         -3,084       -4,97607
           1912           1912         -2,751        -4,9824
           1913           1913         -2,418       -4,98979
           1914           1914         -2,085       -4,99691
           1915           1915         -1,752       -5,00405
           1916           1916         -1,419       -5,01126
           1917           1917         -1,086       -5,01845
           1918           1918         -0,753       -5,02602
           1919           1919         -0,420       -5,03366
           1920           1920    -87,511e-03       -5,04128
           1921           1921          0,245       -5,04522
           1922           1922          0,578       -5,04991
           1923           1923          0,911        -5,0545
           1924           1924          1,244       -5,05866
           1925           1925          1,577       -5,06075
           1926           1926          1,910       -5,06272
           1927           1927          2,243       -5,06398
           1928           1928          2,576       -5,06509
           1929           1929          2,910        -5,0657
           1930           1930          3,243       -5,06598
           1931           1931          3,576       -5,06536
           1932           1932          3,909       -5,06459
           1933           1933          4,242       -5,06581
           1934           1934          4,575       -5,06719
           1935           1935          4,908       -5,06892
           1936           1936          5,241       -5,07069
           1937           1937          5,574       -5,07264
           1938           1938          5,907         -5,076
           1939           1939          6,240       -5,08199
           1940           1940          6,573       -5,08781
           1941           1941          6,906       -5,09383
           1942           1942          7,239       -5,10171
           1943           1943          7,571       -5,11081
           1944           1944          7,904       -5,12151
           1945           1945          8,237       -5,13247
           1946           1946          8,570       -5,14403
           1947           1947          8,903       -5,15569
           1948           1948          9,236       -5,16796
           1949           1949          9,568        -5,1801
           1950           1950          9,901       -5,19281
           1951           1951         10,234       -5,20524
           1952           1952         10,567       -5,21762
           1953           1953         10,900       -5,23017
           1954           1954         11,232       -5,24286
           1955           1955         11,565        -5,2544
           1956           1956         11,898       -5,26553
           1957           1957         12,231       -5,27664
           1958           1958         12,564       -5,28678
           1959           1959         12,897       -5,29698
           1960           1960         13,229       -5,30635
           1961           1961         13,562       -5,31522
           1962           1962         13,895       -5,32312
           1963           1963         14,228       -5,33143
           1964           1964         14,561       -5,33981
           1965           1965         14,894        -5,3481
           1966           1966         15,227       -5,35511
           1967           1967         15,560       -5,36091
           1968           1968         15,892       -5,36724
           1969           1969         16,225        -5,3765
           1970           1970         16,558       -5,38608
           1971           1971         16,891       -5,39503
           1972           1972         17,224       -5,40288
           1973           1973         17,557       -5,41076
           1974           1974         17,890       -5,41876
           1975           1975         18,222       -5,42689
           1976           1976         18,555       -5,43513
           1977           1977         18,888       -5,44347
           1978           1978         19,221       -5,45184
           1979           1979         19,554        -5,4604
           1980           1980         19,887       -5,46971
           1981           1981         20,220       -5,47967
           1982           1982         20,552        -5,4902
           1983           1983         20,885       -5,50044
           1984           1984         21,218        -5,5108
           1985           1985         21,551       -5,52124
           1986           1986         21,884       -5,53204
           1987           1987         22,216       -5,54285
           1988           1988         22,549       -5,55372
           1989           1989         22,882       -5,56466
           1990           1990         23,215       -5,57554
           1991           1991         23,548       -5,58668
           1992           1992         23,880        -5,5979
           1993           1993         24,213       -5,60829
           1994           1994         24,546       -5,61495
           1995           1995         24,879       -5,61928
           1996           1996         25,212       -5,62864
           1997           1997         25,545       -5,63974
           1998           1998         25,877       -5,65106
           1999           1999         26,210       -5,66188
           2000           2000         26,543       -5,67204
           2001           2001         26,876       -5,68178
           2002           2002         27,209       -5,69002
           2003           2003         27,541       -5,69872
           2004           2004         27,874       -5,70749
           2005           2005         28,207       -5,71613
           2006           2006         28,540       -5,72437
           2007           2007         28,873        -5,7328
           2008           2008         29,205       -5,74099
           2009           2009         29,538       -5,74872
           2010           2010         29,871       -5,75511
           2011           2011         30,204       -5,76142
           2012           2012         30,537       -5,76699
           2013           2013         30,870       -5,77129
           2014           2014         31,203       -5,77445
           2015           2015         31,536       -5,77736
           2016           2016         31,869        -5,7789
           2017           2017         32,202       -5,77947
           2018           2018         32,535       -5,77959
           2019           2019         32,868       -5,77735
           2020           2020         33,201       -5,77225
           2021           2021         33,534       -5,77098
           2022           2022         33,867       -5,77249
           2023           2023         34,200       -5,77299
           2024           2024         34,533       -5,77327
           2025           2025         34,866       -5,77342
           2026           2026         35,199        -5,7736
           2027           2027         35,532       -5,77377
           2028           2028         35,865       -5,77343
           2029           2029         36,198       -5,77223
           2030           2030         36,531       -5,76897
           2031           2031         36,864       -5,76624
           2032           2032         37,197        -5,7633
           2033           2033         37,530       -5,76039
           2034           2034         37,863       -5,75722
           2035           2035         38,196       -5,75425
           2036           2036         38,530       -5,75119
           2037           2037         38,863       -5,74801
           2038           2038         39,196       -5,74482
           2039           2039         39,529       -5,74159
           2040           2040         39,862       -5,73828
           2041           2041         40,195        -5,7349
           2042           2042         40,528       -5,73123
           2043           2043         40,861       -5,72766
           2044           2044         41,194       -5,72425
           2045           2045         41,527       -5,72102
           2046           2046         41,861       -5,71708
           2047           2047         42,194       -5,71382
           2048           2048         42,527       -5,71186
           2049           2049         42,860        -5,7103
           2050           2050         43,193       -5,70982
           2051           2051         43,526       -5,71036
           2052           2052         43,859        -5,7123
           2053           2053         44,192       -5,71507
           2054           2054         44,525       -5,72022
           2055           2055         44,857       -5,72537
           2056           2056         45,190       -5,73176
           2057           2057         45,523       -5,73894
           2058           2058         45,856       -5,74858
           2059           2059         46,189       -5,75951
           2060           2060         46,521       -5,77169
           2061           2061         46,854       -5,78449
           2062           2062         47,187       -5,80278
           2063           2063         47,519       -5,82121
           2064           2064         47,852       -5,84002
           2065           2065         48,184       -5,85952
           2066           2066         48,517       -5,88143
           2067           2067         48,849         -5,904
           2068           2068         49,181        -5,9269
           2069           2069         49,514       -5,95031
           2070           2070         49,846       -5,97457
           2071           2071         50,179       -5,99978
           2072           2072         50,511       -6,02514
           2073           2073         50,843       -6,05091
           2074           2074         51,176       -6,07464
           2075           2075         51,508       -6,09746
           2076           2076         51,841       -6,11823
           2077           2077         52,173        -6,1363
           2078           2078         52,506       -6,15095
           2079           2079         52,838       -6,16386
           2080           2080         53,171       -6,17424
           2081           2081         53,504       -6,18277
           2082           2082         53,837        -6,1885
           2083           2083         54,169       -6,19227
           2084           2084         54,502       -6,19152
           2085           2085         54,836       -6,18933
           2086           2086         55,169       -6,18397
           2087           2087         55,502       -6,17518
           2088           2088         55,835       -6,16388
           2089           2089         56,169       -6,14953
           2090           2090         56,502       -6,13312
           2091           2091         56,835       -6,11738
           2092           2092         57,169       -6,10287
           2093           2093         57,502       -6,08963
           2094           2094         57,835       -6,07745
           2095           2095         58,169       -6,06675
           2096           2096         58,502       -6,05806
           2097           2097         58,835       -6,05087
           2098           2098         59,168       -6,04492
           2099           2099         59,501       -6,03999
           2100           2100         59,835        -6,0355
           2101           2101         60,168       -6,03162
           2102           2102         60,501       -6,02838
           2103           2103         60,834       -6,02489
           2104           2104         61,167       -6,02177
           2105           2105         61,500       -6,01933
           2106           2106         61,833        -6,0168
           2107           2107         62,166       -6,01482
           2108           2108         62,499        -6,0141
           2109           2109         62,832       -6,01375
           2110           2110         63,165       -6,01362
           2111           2111         63,498       -6,01311
           2112           2112         63,831       -6,01255
           2113           2113         64,164       -6,01202
           2114           2114         64,497       -6,01132
           2115           2115         64,830       -6,01063
           2116           2116         65,163       -6,00989
           2117           2117         65,496       -6,00909
           2118           2118         65,829       -6,00802
           2119           2119         66,162       -6,00698
           2120           2120         66,495       -6,00592
           2121           2121         66,828       -6,00485
           2122           2122         67,161       -6,00333
           2123           2123         67,494       -6,00196
           2124           2124         67,827       -6,00063
           2125           2125         68,160       -5,99934
           2126           2126         68,493       -5,99784
           2127           2127         68,826       -5,99649
           2128           2128         69,159       -5,99523
           2129           2129         69,492       -5,99395
           2130           2130         69,825       -5,99275
           2131           2131         70,158       -5,99153
           2132           2132         70,491       -5,99033
           2133           2133         70,824        -5,9892
           2134           2134         71,157       -5,98814
           2135           2135         71,490       -5,98717
           2136           2136         71,823       -5,98625
           2137           2137         72,157       -5,98532
           2138           2138         72,490       -5,98445
           2139           2139         72,823       -5,98348
           2140           2140         73,156       -5,98252
           2141           2141         73,489       -5,98153
           2142           2142         73,822       -5,98046
           2143           2143         74,155       -5,97952
           2144           2144         74,488       -5,97863
           2145           2145         74,821       -5,97779
           2146           2146         75,154       -5,97726
           2147           2147         75,487       -5,97681
           2148           2148         75,820       -5,97645
           2149           2149         76,153       -5,97614
           2150           2150         76,486       -5,97608
           2151           2151         76,819       -5,97573
           2152           2152         77,152        -5,9753
           2153           2153         77,485       -5,97496
           2154           2154         77,818       -5,97366
           2155           2155         78,151       -5,97264
           2156           2156         78,484       -5,97127
           2157           2157         78,817       -5,96971
           2158           2158         79,150       -5,96788
           2159           2159         79,483       -5,96639
           2160           2160         79,816       -5,96504
           2161           2161         80,149       -5,96375
           2162           2162         80,482        -5,9627
           2163           2163         80,815       -5,96163
           2164           2164         81,148       -5,96066
           2165           2165         81,481       -5,95974
           2166           2166         81,814       -5,95914
           2167           2167         82,147       -5,95844
           2168           2168         82,480       -5,95774
           2169           2169         82,813       -5,95707
           2170           2170         83,146       -5,95645
           2171           2171         83,479       -5,95581
           2172           2172         83,812       -5,95525
           2173           2173         84,145       -5,95473
           2174           2174         84,478       -5,95411
           2175           2175         84,811       -5,95361
           2176           2176         85,144       -5,95319
           2177           2177         85,477       -5,95276
           2178           2178         85,810       -5,95244
           2179           2179         86,143       -5,95207
           2180           2180         86,476       -5,95161
           2181           2181         86,809       -5,95113
           2182           2182         87,142        -5,9506
           2183           2183         87,475       -5,95005
           2184           2184         87,808       -5,94941
           2185           2185         88,142       -5,94869
           2186           2186         88,475       -5,94774
           2187           2187         88,808        -5,9468
           2188           2188         89,141       -5,94582
           2189           2189         89,474       -5,94483
           2190           2190         89,807        -5,9437
           2191           2191         90,140       -5,94268
           2192           2192         90,473       -5,94164
           2193           2193         90,806       -5,94056
           2194           2194         91,139       -5,93947
           2195           2195         91,472       -5,93835
           2196           2196         91,805       -5,93719
           2197           2197         92,138       -5,93597
           2198           2198         92,471       -5,93467
           2199           2199         92,804       -5,93352
           2200           2200         93,137       -5,93241
           2201           2201         93,470        -5,9313
           2202           2202         93,803       -5,93023
           2203           2203         94,136        -5,9291
           2204           2204         94,469        -5,9279
           2205           2205         94,802       -5,92671
           2206           2206         95,135        -5,9252
           2207           2207         95,468        -5,9238
           2208           2208         95,802       -5,92248
           2209           2209         96,135       -5,92116
           2210           2210         96,468       -5,91981
           2211           2211         96,801       -5,91855
           2212           2212         97,134       -5,91729
           2213           2213         97,467       -5,91604
           2214           2214         97,800        -5,9148
           2215           2215         98,133        -5,9134
           2216           2216         98,466       -5,91199
           2217           2217         98,799       -5,91056
           2218           2218         99,132       -5,90869
           2219           2219         99,465       -5,90692
           2220           2220         99,798       -5,90513
           2221           2221        100,131       -5,90335
           2222           2222        100,464       -5,90139
           2223           2223        100,797       -5,89956
           2224           2224        101,131        -5,8978
           2225           2225        101,464       -5,89603
           2226           2226        101,797       -5,89422
           2227           2227        102,130       -5,89235
           2228           2228        102,463       -5,89044
           2229           2229        102,796        -5,8885
           2230           2230        103,129       -5,88639
           2231           2231        103,462       -5,88431
           2232           2232        103,795       -5,88222
           2233           2233        104,128       -5,88014
           2234           2234        104,461       -5,87792
           2235           2235        104,794       -5,87569
           2236           2236        105,128       -5,87337
           2237           2237        105,461       -5,87101
           2238           2238        105,794       -5,86844
           2239           2239        106,127       -5,86591
           2240           2240        106,460       -5,86332
           2241           2241        106,793        -5,8607
           2242           2242        107,126       -5,85791
           2243           2243        107,459       -5,85517
           2244           2244        107,792       -5,85235
           2245           2245        108,126       -5,84951
           2246           2246        108,459       -5,84663
           2247           2247        108,792       -5,84379
           2248           2248        109,125        -5,8409
           2249           2249        109,458       -5,83794
           2250           2250        109,791       -5,83483
           2251           2251        110,124       -5,83173
           2252           2252        110,457       -5,82862
           2253           2253        110,791       -5,82548
           2254           2254        111,124       -5,82214
           2255           2255        111,457       -5,81893
           2256           2256        111,790       -5,81571
           2257           2257        112,123       -5,81248
           2258           2258        112,456       -5,80938
           2259           2259        112,789       -5,80631
           2260           2260        113,123       -5,80325
           2261           2261        113,456       -5,80018
           2262           2262        113,789       -5,79715
           2263           2263        114,122        -5,7941
           2264           2264        114,455       -5,79112
           2265           2265        114,788       -5,78817
           2266           2266        115,121       -5,78509
           2267           2267        115,455       -5,78212
           2268           2268        115,788       -5,77919
           2269           2269        116,121       -5,77628
           2270           2270        116,454       -5,77348
           2271           2271        116,787       -5,77077
           2272           2272        117,120       -5,76813
           2273           2273        117,453       -5,76552
           2274           2274        117,786       -5,76321
           2275           2275        118,120       -5,76081
           2276           2276        118,453       -5,75848
           2277           2277        118,786       -5,75616
           2278           2278        119,119        -5,7541
           2279           2279        119,452       -5,75203
           2280           2280        119,785       -5,75002
           2281           2281        120,118       -5,74804
           2282           2282        120,451        -5,7464
           2283           2283        120,784       -5,74473
           2284           2284        121,118        -5,7432
           2285           2285        121,451       -5,74174
           2286           2286        121,784       -5,74062
           2287           2287        122,117       -5,73941
           2288           2288        122,450       -5,73823
           2289           2289        122,783       -5,73707
           2290           2290        123,116       -5,73618
           2291           2291        123,449       -5,73522
           2292           2292        123,782       -5,73427
           2293           2293        124,115       -5,73334
           2294           2294        124,448       -5,73263
           2295           2295        124,781       -5,73196
           2296           2296        125,114       -5,73131
           2297           2297        125,447       -5,73069
           2298           2298        125,781       -5,73031
           2299           2299        126,114       -5,72988
           2300           2300        126,447        -5,7295
           2301           2301        126,780       -5,72919
           2302           2302        127,113       -5,72903
           2303           2303        127,446       -5,72894
           2304           2304        127,779       -5,72891
           2305           2305        128,112       -5,72891
           2306           2306        128,445       -5,72927
           2307           2307        128,778       -5,72962
           2308           2308        129,111       -5,73007
           2309           2309        129,444       -5,73054
           2310           2310        129,777       -5,73144
           2311           2311        130,110       -5,73228
           2312           2312        130,443       -5,73317
           2313           2313        130,776       -5,73411
           2314           2314        131,109       -5,73543
           2315           2315        131,442       -5,73676
           2316           2316        131,775       -5,73809
           2317           2317        132,108       -5,73948
           2318           2318        132,441       -5,74112
           2319           2319        132,774       -5,74263
           2320           2320        133,107       -5,74419
           2321           2321        133,440       -5,74579
           2322           2322        133,773       -5,74747
           2323           2323        134,106       -5,74915
           2324           2324        134,439       -5,75084
           2325           2325        134,772       -5,75258
           2326           2326        135,105        -5,7545
           2327           2327        135,438       -5,75639
           2328           2328        135,771       -5,75831
           2329           2329        136,104        -5,7603
           2330           2330        136,437       -5,76249
           2331           2331        136,769       -5,76464
           2332           2332        137,102       -5,76681
           2333           2333        137,435       -5,76904
           2334           2334        137,768       -5,77151
           2335           2335        138,101       -5,77396
           2336           2336        138,434        -5,7765
           2337           2337        138,767       -5,77907
           2338           2338        139,100       -5,78211
           2339           2339        139,433       -5,78511
           2340           2340        139,766       -5,78821
           2341           2341        140,099       -5,79171
           2342           2342        140,432       -5,79571
           2343           2343        140,765       -5,80018
           2344           2344        141,097       -5,80621
           2345           2345        141,430       -5,81313
           2346           2346        141,763       -5,82222
           2347           2347        142,095       -5,83241
           2348           2348        142,428        -5,8443
           2349           2349        142,760       -5,85756
           2350           2350        143,093       -5,87425
           2351           2351        143,425       -5,89231
           2352           2352        143,757       -5,91233
           2353           2353        144,089       -5,93381
           2354           2354        144,422       -5,95648
           2355           2355        144,754        -5,9787
           2356           2356        145,086       -6,00084
           2357           2357        145,418       -6,02228
           2358           2358        145,750       -6,04048
           2359           2359        146,083       -6,05685
           2360           2360        146,415       -6,07063
           2361           2361        146,748       -6,08255
           2362           2362        147,080       -6,08968
           2363           2363        147,413       -6,09456
           2364           2364        147,746       -6,09651
           2365           2365        148,079       -6,09645
           2366           2366        148,412       -6,09223
           2367           2367        148,746       -6,08442
           2368           2368        149,079       -6,07379
           2369           2369        149,413       -6,06106
           2370           2370        149,747       -6,04376
           2371           2371        150,080       -6,02277
           2372           2372        150,415       -5,99838
           2373           2373        150,749       -5,97305
           2374           2374        151,083       -5,94757
           2375           2375        151,417       -5,92259
           2376           2376        151,751       -5,89932
           2377           2377        152,085       -5,87749
           2378           2378        152,419       -5,85993
           2379           2379        152,752       -5,84439
           2380           2380        153,086       -5,83137
           2381           2381        153,419       -5,81991
           2382           2382        153,753       -5,81109
           2383           2383        154,086       -5,80329
           2384           2384        154,420       -5,79688
           2385           2385        154,753       -5,79167
           2386           2386        155,086       -5,78763
           2387           2387        155,419       -5,78399
           2388           2388        155,752       -5,78098
           2389           2389        156,086       -5,77807
           2390           2390        156,419       -5,77611
           2391           2391        156,752       -5,77421
           2392           2392        157,085       -5,77264
           2393           2393        157,418       -5,77109
           2394           2394        157,751       -5,77016
           2395           2395        158,084       -5,76912
           2396           2396        158,417       -5,76814
           2397           2397        158,751       -5,76723
           2398           2398        159,084       -5,76673
           2399           2399        159,417       -5,76607
           2400           2400        159,750       -5,76539
           2401           2401        160,083       -5,76472
           2402           2402        160,416        -5,7641
           2403           2403        160,749       -5,76363
           2404           2404        161,082       -5,76315
           2405           2405        161,415       -5,76267
           2406           2406        161,748        -5,7622
           2407           2407        162,081       -5,76195
           2408           2408        162,414       -5,76167
           2409           2409        162,747       -5,76137
           2410           2410        163,080        -5,7611
           2411           2411        163,414       -5,76089
           2412           2412        163,747       -5,76056
           2413           2413        164,080       -5,76016
           2414           2414        164,413       -5,75975
           2415           2415        164,746       -5,75929
           2416           2416        165,079       -5,75887
           2417           2417        165,412       -5,75851
           2418           2418        165,745       -5,75826
           2419           2419        166,078       -5,75826
           2420           2420        166,411       -5,75833
           2421           2421        166,744       -5,75847
           2422           2422        167,077       -5,75867
           2423           2423        167,410       -5,75924
           2424           2424        167,743       -5,75956
           2425           2425        168,076       -5,75979
           2426           2426        168,409       -5,75999
           2427           2427        168,743       -5,76014
           2428           2428        169,076       -5,76031
           2429           2429        169,409       -5,76044
           2430           2430        169,742       -5,76054
           2431           2431        170,075       -5,76056
           2432           2432        170,408       -5,76057
           2433           2433        170,741       -5,76056
           2434           2434        171,074       -5,76049
           2435           2435        171,407       -5,76029
           2436           2436        171,740       -5,76012
           2437           2437        172,073       -5,75999
           2438           2438        172,406        -5,7599
           2439           2439        172,739       -5,75984
           2440           2440        173,072       -5,75978
           2441           2441        173,405       -5,75975
           2442           2442        173,738       -5,75976
           2443           2443        174,072       -5,75995
           2444           2444        174,405       -5,76008
           2445           2445        174,738       -5,76022
           2446           2446        175,071       -5,76035
           2447           2447        175,404       -5,76057
           2448           2448        175,737       -5,76071
           2449           2449        176,070       -5,76081
           2450           2450        176,403       -5,76091
           2451           2451        176,736       -5,76103
           2452           2452        177,069       -5,76121
           2453           2453        177,402       -5,76147
           2454           2454        177,735       -5,76179
           2455           2455        178,068       -5,76224
           2456           2456        178,401       -5,76264
           2457           2457        178,734       -5,76305
           2458           2458        179,067       -5,76349
           2459           2459        179,400       -5,76401
           2460           2460        179,733       -5,76452
           2461           2461        180,066       -5,76501
           2462           2462        180,399       -5,76552
           2463           2463        180,733       -5,76597
           2464           2464        181,066       -5,76634
           2465           2465        181,399       -5,76667
           2466           2466        181,732       -5,76701
           2467           2467        182,065       -5,76728
           2468           2468        182,398       -5,76761
           2469           2469        182,731       -5,76794
           2470           2470        183,064       -5,76825
           2471           2471        183,397        -5,7687
           2472           2472        183,730        -5,7691
           2473           2473        184,063       -5,76947
           2474           2474        184,396       -5,76983
           2475           2475        184,729        -5,7702
           2476           2476        185,062       -5,77058
           2477           2477        185,395        -5,7709
           2478           2478        185,728       -5,77116
           2479           2479        186,061       -5,77141
           2480           2480        186,394       -5,77165
           2481           2481        186,727       -5,77185
           2482           2482        187,061       -5,77199
           2483           2483        187,394       -5,77207
           2484           2484        187,727       -5,77224
           2485           2485        188,060       -5,77248
           2486           2486        188,393       -5,77277
           2487           2487        188,726       -5,77312
           2488           2488        189,059       -5,77347
           2489           2489        189,392       -5,77384
           2490           2490        189,725       -5,77423
           2491           2491        190,058       -5,77471
           2492           2492        190,391       -5,77508
           2493           2493        190,724       -5,77544
           2494           2494        191,057       -5,77582
           2495           2495        191,390       -5,77611
           2496           2496        191,723       -5,77645
           2497           2497        192,056       -5,77684
           2498           2498        192,389       -5,77723
           2499           2499        192,723       -5,77763
           2500           2500        193,056       -5,77805
           2501           2501        193,389       -5,77854
           2502           2502        193,722       -5,77906
           2503           2503        194,055       -5,77958
           2504           2504        194,388       -5,78016
           2505           2505        194,721       -5,78076
           2506           2506        195,054       -5,78133
           2507           2507        195,387       -5,78188
           2508           2508        195,720       -5,78244
           2509           2509        196,053       -5,78307
           2510           2510        196,386       -5,78373
           2511           2511        196,719       -5,78433
           2512           2512        197,052        -5,7849
           2513           2513        197,385       -5,78544
           2514           2514        197,718       -5,78589
           2515           2515        198,051       -5,78638
           2516           2516        198,384       -5,78688
           2517           2517        198,717       -5,78719
           2518           2518        199,050       -5,78744
           2519           2519        199,384       -5,78658
           2520           2520        199,717       -5,78368


Results:
  Integral	-24,30 mJ
    normalized	-3,16 Jg^-1
  Onset	34,78 °C
  Peak	42,85 °C

  Integral	-190,74 mJ
    normalized	-24,77 Jg^-1
  Onset	139,85 °C
  Peak	148,91 °C

  Integral	-9,15 mJ
    normalized	-1,19 Jg^-1
  Onset	141,18 °C
  Peak	147,75 °C

  Step	-45,48e-03 Wg^-1
  	-0,35 mW
  Onset	46,28 °C
  Inflect. Pt.	50,18 °C
  Midpoint	48,21 °C
  Angle Midpoint	48,70 °C

  Step	-94,24e-03 Wg^-1
  	-0,73 mW
  Onset	6,59 °C
  Inflect. Pt.	9,90 °C
  Midpoint	17,92 °C
  Angle Midpoint	19,16 °C

Sample:
  Grazia_DSC_GR33, 7,7000 mg


________________________________________________________________________________
Not signed                                                        STARe SW 16.40