Grazia_DSC_GR 08                                                18.11.2022 11:46
________________________________________________________________________________



Curve Name:
  Grazia_DSC_GR 08, 18.11.2022 11:28:29
  Performed 18.11.2022 11:28:29
Curve Values:
          Index              t             Ts          Value
                           [s]           [°C]           [mW]
              0              0        -79,995       0,857708
              1              1        -79,661        1,01954
              2              2        -79,323        1,83661
              3              3        -78,982        3,22417
              4              4        -78,639        4,83822
              5              5        -78,300        5,86105
              6              6        -77,965        6,12748
              7              7        -77,633        5,91936
              8              8        -77,304         5,0233
              9              9        -76,976        4,03346
             10             10        -76,649        3,03736
             11             11        -76,321        2,07455
             12             12        -75,992        1,26967
             13             13        -75,663       0,555575
             14             14        -75,334     -0,0604046
             15             15        -75,004      -0,611263
             16             16        -74,673       -1,03266
             17             17        -74,342       -1,40303
             18             18        -74,011       -1,71951
             19             19        -73,679       -2,00215
             20             20        -73,347       -2,21934
             21             21        -73,015       -2,40966
             22             22        -72,683       -2,57005
             23             23        -72,351       -2,71299
             24             24        -72,018       -2,83271
             25             25        -71,686       -2,92453
             26             26        -71,353       -3,00878
             27             27        -71,020       -3,08377
             28             28        -70,688       -3,14822
             29             29        -70,355       -3,19951
             30             30        -70,022       -3,24437
             31             31        -69,689       -3,28243
             32             32        -69,356        -3,3149
             33             33        -69,023       -3,34081
             34             34        -68,690       -3,36286
             35             35        -68,357       -3,38455
             36             36        -68,024       -3,39964
             37             37        -67,691       -3,41361
             38             38        -67,358       -3,42614
             39             39        -67,025       -3,43747
             40             40        -66,692       -3,44819
             41             41        -66,358       -3,45701
             42             42        -66,025       -3,46134
             43             43        -65,692       -3,46413
             44             44        -65,359       -3,46582
             45             45        -65,026       -3,46798
             46             46        -64,693       -3,46964
             47             47        -64,359       -3,47072
             48             48        -64,026       -3,47246
             49             49        -63,693       -3,47806
             50             50        -63,360       -3,48073
             51             51        -63,027       -3,48012
             52             52        -62,694       -3,48351
             53             53        -62,361       -3,48741
             54             54        -62,027       -3,49352
             55             55        -61,694       -3,49307
             56             56        -61,361        -3,4968
             57             57        -61,028        -3,5008
             58             58        -60,695       -3,50429
             59             59        -60,362       -3,50647
             60             60        -60,029       -3,50743
             61             61        -59,695       -3,51201
             62             62        -59,362       -3,51844
             63             63        -59,029        -3,5258
             64             64        -58,696        -3,5293
             65             65        -58,363       -3,53358
             66             66        -58,030        -3,5401
             67             67        -57,697       -3,54687
             68             68        -57,364       -3,55371
             69             69        -57,030       -3,56017
             70             70        -56,697       -3,56679
             71             71        -56,364       -3,57357
             72             72        -56,031       -3,57944
             73             73        -55,698       -3,58594
             74             74        -55,365       -3,59364
             75             75        -55,032       -3,60194
             76             76        -54,699       -3,61419
             77             77        -54,366       -3,62526
             78             78        -54,033       -3,63513
             79             79        -53,700       -3,64474
             80             80        -53,366       -3,65362
             81             81        -53,033       -3,66388
             82             82        -52,700       -3,67636
             83             83        -52,367       -3,68865
             84             84        -52,034       -3,69868
             85             85        -51,701       -3,70935
             86             86        -51,368       -3,72015
             87             87        -51,035       -3,73201
             88             88        -50,702        -3,7444
             89             89        -50,369       -3,75665
             90             90        -50,036       -3,76913
             91             91        -49,703       -3,78335
             92             92        -49,370       -3,79186
             93             93        -49,037       -3,80165
             94             94        -48,704       -3,81322
             95             95        -48,371       -3,82481
             96             96        -48,038        -3,8381
             97             97        -47,705       -3,85628
             98             98        -47,372       -3,87426
             99             99        -47,039       -3,89095
            100            100        -46,706       -3,90424
            101            101        -46,373       -3,91704
            102            102        -46,040       -3,93378
            103            103        -45,707       -3,95178
            104            104        -45,374       -3,96989
            105            105        -45,041       -3,98491
            106            106        -44,708       -3,99765
            107            107        -44,375       -4,00718
            108            108        -44,042       -4,01528
            109            109        -43,709       -4,02341
            110            110        -43,376         -4,031
            111            111        -43,043       -4,03767
            112            112        -42,710       -4,04468
            113            113        -42,377       -4,05177
            114            114        -42,044       -4,05891
            115            115        -41,711       -4,06621
            116            116        -41,377       -4,07296
            117            117        -41,044       -4,07855
            118            118        -40,711       -4,08364
            119            119        -40,378       -4,08881
            120            120        -40,045       -4,09357
            121            121        -39,712        -4,0986
            122            122        -39,379       -4,10308
            123            123        -39,046       -4,10683
            124            124        -38,713       -4,10984
            125            125        -38,380       -4,11162
            126            126        -38,047       -4,11315
            127            127        -37,714       -4,11603
            128            128        -37,380       -4,11837
            129            129        -37,047       -4,11861
            130            130        -36,714       -4,11913
            131            131        -36,381       -4,11934
            132            132        -36,048       -4,11896
            133            133        -35,715       -4,11869
            134            134        -35,382       -4,11839
            135            135        -35,049       -4,11812
            136            136        -34,715       -4,11697
            137            137        -34,382       -4,11609
            138            138        -34,049       -4,11524
            139            139        -33,716       -4,11446
            140            140        -33,383       -4,11367
            141            141        -33,050       -4,11257
            142            142        -32,717       -4,11202
            143            143        -32,384       -4,11243
            144            144        -32,050       -4,11253
            145            145        -31,717       -4,11254
            146            146        -31,384       -4,11229
            147            147        -31,051       -4,11191
            148            148        -30,718       -4,11575
            149            149        -30,385       -4,11848
            150            150        -30,052        -4,1217
            151            151        -29,719       -4,12726
            152            152        -29,386       -4,13175
            153            153        -29,053       -4,13528
            154            154        -28,720        -4,1385
            155            155        -28,387       -4,14201
            156            156        -28,053       -4,14591
            157            157        -27,720       -4,14976
            158            158        -27,387       -4,15366
            159            159        -27,054       -4,15787
            160            160        -26,721         -4,163
            161            161        -26,388       -4,16787
            162            162        -26,055        -4,1736
            163            163        -25,722       -4,18067
            164            164        -25,389       -4,18863
            165            165        -25,056       -4,19649
            166            166        -24,723       -4,20403
            167            167        -24,390        -4,2105
            168            168        -24,057       -4,22108
            169            169        -23,724       -4,23081
            170            170        -23,391       -4,24124
            171            171        -23,058       -4,25345
            172            172        -22,725        -4,2646
            173            173        -22,392       -4,27586
            174            174        -22,059       -4,28657
            175            175        -21,726       -4,29643
            176            176        -21,394       -4,31174
            177            177        -21,061       -4,32518
            178            178        -20,728        -4,3392
            179            179        -20,395        -4,3531
            180            180        -20,062       -4,36817
            181            181        -19,729       -4,38307
            182            182        -19,396       -4,39861
            183            183        -19,063       -4,41456
            184            184        -18,731       -4,43158
            185            185        -18,398       -4,44893
            186            186        -18,065       -4,46747
            187            187        -17,732       -4,48622
            188            188        -17,399       -4,50483
            189            189        -17,066       -4,52374
            190            190        -16,734       -4,54491
            191            191        -16,401       -4,56645
            192            192        -16,068       -4,58861
            193            193        -15,735       -4,61055
            194            194        -15,403       -4,63277
            195            195        -15,070        -4,6554
            196            196        -14,737       -4,68269
            197            197        -14,405       -4,71035
            198            198        -14,072       -4,73828
            199            199        -13,739        -4,7663
            200            200        -13,407       -4,79698
            201            201        -13,074       -4,82924
            202            202        -12,742       -4,86297
            203            203        -12,409       -4,89727
            204            204        -12,077       -4,93255
            205            205        -11,744       -4,96927
            206            206        -11,412       -5,00788
            207            207        -11,079       -5,04746
            208            208        -10,747       -5,08962
            209            209        -10,414       -5,13448
            210            210        -10,082        -5,1809
            211            211         -9,750       -5,22831
            212            212         -9,418       -5,27857
            213            213         -9,085       -5,33021
            214            214         -8,753       -5,38438
            215            215         -8,421       -5,44151
            216            216         -8,089       -5,50138
            217            217         -7,757       -5,56493
            218            218         -7,425        -5,6302
            219            219         -7,093       -5,69652
            220            220         -6,761       -5,76636
            221            221         -6,430       -5,84066
            222            222         -6,098       -5,91729
            223            223         -5,766       -5,99519
            224            224         -5,434       -6,07644
            225            225         -5,103       -6,16124
            226            226         -4,771       -6,24823
            227            227         -4,440         -6,338
            228            228         -4,109       -6,43071
            229            229         -3,777       -6,52521
            230            230         -3,446       -6,62195
            231            231         -3,115       -6,72008
            232            232         -2,783       -6,82063
            233            233         -2,452        -6,9212
            234            234         -2,121       -7,02337
            235            235         -1,790       -7,12684
            236            236         -1,459       -7,23327
            237            237         -1,128       -7,34057
            238            238         -0,797       -7,44926
            239            239         -0,466       -7,55918
            240            240         -0,135       -7,67241
            241            241          0,196       -7,78759
            242            242          0,527       -7,90496
            243            243          0,858       -8,02347
            244            244          1,188       -8,14913
            245            245          1,519       -8,27918
            246            246          1,849       -8,41377
            247            247          2,180       -8,54998
            248            248          2,510       -8,69518
            249            249          2,840       -8,84455
            250            250          3,170       -8,99811
            251            251          3,500       -9,15734
            252            252          3,830       -9,32516
            253            253          4,160       -9,49504
            254            254          4,489       -9,66771
            255            255          4,819       -9,84228
            256            256          5,148       -10,0211
            257            257          5,478       -10,2015
            258            258          5,807        -10,383
            259            259          6,137       -10,5649
            260            260          6,466       -10,7452
            261            261          6,795       -10,9242
            262            262          7,125       -11,1023
            263            263          7,454       -11,2802
            264            264          7,783       -11,4604
            265            265          8,113       -11,6439
            266            266          8,442       -11,8307
            267            267          8,771       -12,0213
            268            268          9,100        -12,222
            269            269          9,428       -12,4264
            270            270          9,757       -12,6339
            271            271         10,085       -12,8415
            272            272         10,414       -13,0454
            273            273         10,743       -13,2405
            274            274         11,072       -13,4225
            275            275         11,401       -13,5926
            276            276         11,732       -13,7033
            277            277         12,063       -13,7567
            278            278         12,396       -13,7212
            279            279         12,731       -13,6158
            280            280         13,069        -13,329
            281            281         13,409       -12,9578
            282            282         13,751       -12,5136
            283            283         14,093        -12,033
            284            284         14,436       -11,5171
            285            285         14,779       -11,0061
            286            286         15,122       -10,5114
            287            287         15,464       -10,0314
            288            288         15,805       -9,61189
            289            289         16,146       -9,23259
            290            290         16,485       -8,90313
            291            291         16,824       -8,60794
            292            292         17,161       -8,38907
            293            293         17,498       -8,20349
            294            294         17,834       -8,05278
            295            295         18,170       -7,92419
            296            296         18,504       -7,83543
            297            297         18,839       -7,76179
            298            298         19,173       -7,70271
            299            299         19,507       -7,65171
            300            300         19,841       -7,61465
            301            301         20,174       -7,57894
            302            302         20,508       -7,54451
            303            303         20,841       -7,51065
            304            304         21,175       -7,46995
            305            305         21,509       -7,42207
            306            306         21,843       -7,36489
            307            307         22,178       -7,30142
            308            308         22,512       -7,22198
            309            309         22,847       -7,13521
            310            310         23,182       -7,04221
            311            311         23,517       -6,94667
            312            312         23,852       -6,84634
            313            313         24,187       -6,74604
            314            314         24,522       -6,64585
            315            315         24,857       -6,54623
            316            316         25,193       -6,44824
            317            317         25,528       -6,35318
            318            318         25,863       -6,25956
            319            319         26,198       -6,16708
            320            320         26,533        -6,0776
            321            321         26,867       -5,99219
            322            322         27,202        -5,9112
            323            323         27,537       -5,83218
            324            324         27,872       -5,75879
            325            325         28,206       -5,69148
            326            326         28,541       -5,62755
            327            327         28,875       -5,56766
            328            328         29,209       -5,51412
            329            329         29,543       -5,46766
            330            330         29,877       -5,42944
            331            331         30,211       -5,39771
            332            332         30,544       -5,37559
            333            333         30,878       -5,36834
            334            334         31,210       -5,37951
            335            335         31,543       -5,41469
            336            336         31,874        -5,4812
            337            337         32,205       -5,58208
            338            338         32,535       -5,71833
            339            339         32,864       -5,88741
            340            340         33,192       -6,08136
            341            341         33,520       -6,28912
            342            342         33,848       -6,50155
            343            343         34,177       -6,71106
            344            344         34,505       -6,90915
            345            345         34,833       -7,09265
            346            346         35,162       -7,25963
            347            347         35,492       -7,40891
            348            348         35,822       -7,54157
            349            349         36,152       -7,65988
            350            350         36,482       -7,76538
            351            351         36,813       -7,86284
            352            352         37,144       -7,94526
            353            353         37,475       -8,02153
            354            354         37,806       -8,09056
            355            355         38,137        -8,1507
            356            356         38,469       -8,20094
            357            357         38,801       -8,24006
            358            358         39,133        -8,2666
            359            359         39,466       -8,28056
            360            360         39,799       -8,28132
            361            361         40,132       -8,27064
            362            362         40,465       -8,24911
            363            363         40,799       -8,21945
            364            364         41,132       -8,18302
            365            365         41,466       -8,14136
            366            366         41,800       -8,09758
            367            367         42,134       -8,05282
            368            368         42,468       -8,00269
            369            369         42,803       -7,95036
            370            370         43,137       -7,89241
            371            371         43,471       -7,83009
            372            372         43,806       -7,75245
            373            373         44,141       -7,66263
            374            374         44,477       -7,55503
            375            375         44,813       -7,43331
            376            376         45,150        -7,2743
            377            377         45,487       -7,10224
            378            378         45,825       -6,92305
            379            379         46,162       -6,74269
            380            380         46,499       -6,58821
            381            381         46,835       -6,45116
            382            382         47,171       -6,33466
            383            383         47,507       -6,23111
            384            384         47,842       -6,14912
            385            385         48,177       -6,07451
            386            386         48,512       -6,00602
            387            387         48,846       -5,94126
            388            388         49,181       -5,88367
            389            389         49,515       -5,82809
            390            390         49,850       -5,77799
            391            391         50,184       -5,73233
            392            392         50,518       -5,69202
            393            393         50,852       -5,65608
            394            394         51,186       -5,62394
            395            395         51,519       -5,59636
            396            396         51,853       -5,57361
            397            397         52,187       -5,55266
            398            398         52,520         -5,534
            399            399         52,854       -5,51687
            400            400         53,187       -5,50292
            401            401         53,520       -5,49029
            402            402         53,854       -5,47891
            403            403         54,187        -5,4678
            404            404         54,520       -5,45647
            405            405         54,854       -5,44516
            406            406         55,187       -5,43353
            407            407         55,520       -5,42198
            408            408         55,854       -5,41267
            409            409         56,187       -5,40416
            410            410         56,520       -5,39607
            411            411         56,853       -5,38823
            412            412         57,187       -5,38303
            413            413         57,520       -5,37878
            414            414         57,853       -5,37524
            415            415         58,186       -5,37241
            416            416         58,519       -5,37044
            417            417         58,852       -5,36845
            418            418         59,185        -5,3668
            419            419         59,518        -5,3654
            420            420         59,851       -5,36425
            421            421         60,184       -5,36292
            422            422         60,517       -5,36168
            423            423         60,851       -5,36058
            424            424         61,184       -5,35942
            425            425         61,517        -5,3583
            426            426         61,850        -5,3579
            427            427         62,183        -5,3588
            428            428         62,516       -5,36065
            429            429         62,849       -5,36202
            430            430         63,182       -5,36317
            431            431         63,515       -5,36434
            432            432         63,848        -5,3652
            433            433         64,181       -5,36605
            434            434         64,514       -5,36685
            435            435         64,847       -5,36762
            436            436         65,180       -5,36806
            437            437         65,513       -5,36864
            438            438         65,846       -5,36923
            439            439         66,179       -5,36984
            440            440         66,512       -5,37047
            441            441         66,845       -5,37109
            442            442         67,178       -5,37164
            443            443         67,511       -5,37205
            444            444         67,844       -5,37389
            445            445         68,176       -5,37845
            446            446         68,509       -5,38263
            447            447         68,842       -5,38596
            448            448         69,175       -5,38667
            449            449         69,508       -5,38681
            450            450         69,841       -5,38631
            451            451         70,174       -5,38455
            452            452         70,507       -5,38156
            453            453         70,841       -5,37882
            454            454         71,174        -5,3757
            455            455         71,507       -5,37259
            456            456         71,840       -5,36915
            457            457         72,173       -5,36584
            458            458         72,506       -5,36259
            459            459         72,839       -5,35937
            460            460         73,172       -5,35614
            461            461         73,506       -5,35289
            462            462         73,839       -5,34975
            463            463         74,172       -5,34668
            464            464         74,505       -5,34381
            465            465         74,838       -5,34099
            466            466         75,171       -5,33826
            467            467         75,504       -5,33558
            468            468         75,837       -5,33322
            469            469         76,170       -5,33069
            470            470         76,504       -5,32813
            471            471         76,837       -5,32556
            472            472         77,170       -5,32294
            473            473         77,503       -5,32025
            474            474         77,836       -5,31744
            475            475         78,169       -5,31456
            476            476         78,502        -5,3114
            477            477         78,835       -5,30824
            478            478         79,168       -5,30498
            479            479         79,502       -5,30163
            480            480         79,835       -5,29779
            481            481         80,168       -5,29405
            482            482         80,501       -5,28982
            483            483         80,834       -5,28518
            484            484         81,167       -5,28015
            485            485         81,501       -5,27521
            486            486         81,834       -5,27015
            487            487         82,167       -5,26515
            488            488         82,500       -5,25945
            489            489         82,833       -5,25323
            490            490         83,167       -5,24654
            491            491         83,500       -5,23997
            492            492         83,833       -5,23287
            493            493         84,167       -5,22585
            494            494         84,500        -5,2188
            495            495         84,833        -5,2117
            496            496         85,166       -5,20438
            497            497         85,500       -5,19739
            498            498         85,833       -5,19032
            499            499         86,166       -5,18329
            500            500         86,499       -5,17655
            501            501         86,833       -5,17228
            502            502         87,166       -5,16873
            503            503         87,499        -5,1654
            504            504         87,832        -5,1625
            505            505         88,165       -5,15945
            506            506         88,498       -5,15653
            507            507         88,831       -5,15398
            508            508         89,165       -5,15131
            509            509         89,498       -5,14971
            510            510         89,831       -5,14915
            511            511         90,164       -5,14907
            512            512         90,497       -5,14966
            513            513         90,830       -5,14989
            514            514         91,163       -5,15018
            515            515         91,496       -5,15048
            516            516         91,829       -5,15103
            517            517         92,162       -5,15149
            518            518         92,495       -5,15197
            519            519         92,828       -5,15246
            520            520         93,161       -5,15308
            521            521         93,494        -5,1536
            522            522         93,827       -5,15411
            523            523         94,160       -5,15458
            524            524         94,493         -5,155
            525            525         94,826        -5,1554
            526            526         95,159       -5,15579
            527            527         95,492       -5,15616
            528            528         95,825       -5,15637
            529            529         96,158       -5,15666
            530            530         96,491         -5,157
            531            531         96,824       -5,15736
            532            532         97,157       -5,15768
            533            533         97,490       -5,15792
            534            534         97,824        -5,1581
            535            535         98,157       -5,15825
            536            536         98,490       -5,15836
            537            537         98,823       -5,15848
            538            538         99,156       -5,15851
            539            539         99,489       -5,15847
            540            540         99,822       -5,15838
            541            541        100,155       -5,15824
            542            542        100,488       -5,15809
            543            543        100,821       -5,15795
            544            544        101,154       -5,15781
            545            545        101,487       -5,15786
            546            546        101,820       -5,15783
            547            547        102,153       -5,15782
            548            548        102,486       -5,15927
            549            549        102,819       -5,16096
            550            550        103,152       -5,16351
            551            551        103,485       -5,16733
            552            552        103,818       -5,17224
            553            553        104,151       -5,17668
            554            554        104,484       -5,18099
            555            555        104,817       -5,18541
            556            556        105,150       -5,18984
            557            557        105,482       -5,19587
            558            558        105,815       -5,20741
            559            559        106,147       -5,22379
            560            560        106,480       -5,24206
            561            561        106,812       -5,26043
            562            562        107,145       -5,28019
            563            563        107,477       -5,30099
            564            564        107,809       -5,33246
            565            565        108,140       -5,37143
            566            566        108,472       -5,42317
            567            567        108,802       -5,48655
            568            568        109,132       -5,58584
            569            569        109,461       -5,69497
            570            570        109,791       -5,78646
            571            571        110,121       -5,85302
            572            572        110,455       -5,84563
            573            573        110,788       -5,83037
            574            574        111,122        -5,8138
            575            575        111,456       -5,79353
            576            576        111,790       -5,76635
            577            577        112,124       -5,74003
            578            578        112,457       -5,71527
            579            579        112,791       -5,69154
            580            580        113,125        -5,6755
            581            581        113,459       -5,66131
            582            582        113,792       -5,64935
            583            583        114,125        -5,6387
            584            584        114,459       -5,63065
            585            585        114,792       -5,62359
            586            586        115,125       -5,61709
            587            587        115,459       -5,61113
            588            588        115,792       -5,60656
            589            589        116,125       -5,60223
            590            590        116,458       -5,59845
            591            591        116,791       -5,59481
            592            592        117,124       -5,59204
            593            593        117,458       -5,58918
            594            594        117,791       -5,58624
            595            595        118,124       -5,58338
            596            596        118,457       -5,58082
            597            597        118,790       -5,57815
            598            598        119,123       -5,57551
            599            599        119,456        -5,5729
            600            600        119,790       -5,57058
            601            601        120,123       -5,56827
            602            602        120,456       -5,56601
            603            603        120,789        -5,5638
            604            604        121,122       -5,56192
            605            605        121,455       -5,55997
            606            606        121,788       -5,55809
            607            607        122,121       -5,55629
            608            608        122,454       -5,55475
            609            609        122,788        -5,5531
            610            610        123,121       -5,55141
            611            611        123,454       -5,54971
            612            612        123,787       -5,54821
            613            613        124,120       -5,54662
            614            614        124,453       -5,54504
            615            615        124,786       -5,54348
            616            616        125,119       -5,54186
            617            617        125,452       -5,54024
            618            618        125,786       -5,53863
            619            619        126,119       -5,53706
            620            620        126,452       -5,53539
            621            621        126,785       -5,53378
            622            622        127,118       -5,53227
            623            623        127,451        -5,5308
            624            624        127,784       -5,52935
            625            625        128,117       -5,52792
            626            626        128,450       -5,52649
            627            627        128,783       -5,52506
            628            628        129,117       -5,52367
            629            629        129,450       -5,52223
            630            630        129,783       -5,52078
            631            631        130,116       -5,51933
            632            632        130,449       -5,51795
            633            633        130,782       -5,51655
            634            634        131,115       -5,51513
            635            635        131,448       -5,51377
            636            636        131,781       -5,51259
            637            637        132,114       -5,51134
            638            638        132,448       -5,51014
            639            639        132,781       -5,50893
            640            640        133,114       -5,50787
            641            641        133,447       -5,50687
            642            642        133,780       -5,50592
            643            643        134,113       -5,50495
            644            644        134,446       -5,50411
            645            645        134,779       -5,50313
            646            646        135,112       -5,50208
            647            647        135,445       -5,50102
            648            648        135,778       -5,49985
            649            649        136,112       -5,49871
            650            650        136,445        -5,4976
            651            651        136,778       -5,49654
            652            652        137,111       -5,49563
            653            653        137,444        -5,4948
            654            654        137,777       -5,49409
            655            655        138,110       -5,49378
            656            656        138,443       -5,49349
            657            657        138,776       -5,49298
            658            658        139,109       -5,49238
            659            659        139,442       -5,49176
            660            660        139,775       -5,49077
            661            661        140,109       -5,48989
            662            662        140,442       -5,48901
            663            663        140,775        -5,4881
            664            664        141,108       -5,48709
            665            665        141,441       -5,48621
            666            666        141,774       -5,48532
            667            667        142,107        -5,4844
            668            668        142,440       -5,48374
            669            669        142,773       -5,48295
            670            670        143,106       -5,48211
            671            671        143,439       -5,48131
            672            672        143,773       -5,48066
            673            673        144,106       -5,48002
            674            674        144,439       -5,47944
            675            675        144,772       -5,47894
            676            676        145,105        -5,4786
            677            677        145,438       -5,47808
            678            678        145,771       -5,47747
            679            679        146,104       -5,47684
            680            680        146,437        -5,4762
            681            681        146,770       -5,47556
            682            682        147,103        -5,4749
            683            683        147,436       -5,47424
            684            684        147,770       -5,47352
            685            685        148,103       -5,47278
            686            686        148,436       -5,47197
            687            687        148,769       -5,47116
            688            688        149,102       -5,47029
            689            689        149,435       -5,46949
            690            690        149,768        -5,4687
            691            691        150,101       -5,46792
            692            692        150,434       -5,46714
            693            693        150,767       -5,46631
            694            694        151,100       -5,46551
            695            695        151,434       -5,46474
            696            696        151,767       -5,46391
            697            697        152,100        -5,4631
            698            698        152,433        -5,4623
            699            699        152,766       -5,46149
            700            700        153,099       -5,46079
            701            701        153,432       -5,46003
            702            702        153,765       -5,45931
            703            703        154,098       -5,45864
            704            704        154,431       -5,45789
            705            705        154,765       -5,45716
            706            706        155,098       -5,45649
            707            707        155,431       -5,45588
            708            708        155,764       -5,45537
            709            709        156,097       -5,45496
            710            710        156,430       -5,45458
            711            711        156,763       -5,45417
            712            712        157,096       -5,45404
            713            713        157,429       -5,45376
            714            714        157,762       -5,45346
            715            715        158,095       -5,45319
            716            716        158,428       -5,45285
            717            717        158,762       -5,45254
            718            718        159,095       -5,45222
            719            719        159,428       -5,45188
            720            720        159,761       -5,45156
            721            721        160,094       -5,45129
            722            722        160,427       -5,45101
            723            723        160,760       -5,45074
            724            724        161,093       -5,45051
            725            725        161,426       -5,45034
            726            726        161,759       -5,45018
            727            727        162,092          -5,45
            728            728        162,425       -5,44986
            729            729        162,758       -5,44968
            730            730        163,092       -5,44948
            731            731        163,425       -5,44925
            732            732        163,758       -5,44902
            733            733        164,091       -5,44875
            734            734        164,424       -5,44856
            735            735        164,757       -5,44848
            736            736        165,090       -5,44843
            737            737        165,423       -5,44834
            738            738        165,756       -5,44809
            739            739        166,089       -5,44771
            740            740        166,422       -5,44729
            741            741        166,755       -5,44674
            742            742        167,089       -5,44634
            743            743        167,422         -5,446
            744            744        167,755       -5,44567
            745            745        168,088       -5,44543
            746            746        168,421       -5,44506
            747            747        168,754       -5,44462
            748            748        169,087       -5,44419
            749            749        169,420       -5,44373
            750            750        169,753       -5,44331
            751            751        170,086       -5,44293
            752            752        170,419        -5,4426
            753            753        170,752       -5,44245
            754            754        171,086       -5,44234
            755            755        171,419       -5,44231
            756            756        171,752       -5,44234
            757            757        172,085       -5,44267
            758            758        172,418       -5,44288
            759            759        172,751       -5,44303
            760            760        173,084       -5,44319
            761            761        173,417       -5,44337
            762            762        173,750       -5,44354
            763            763        174,083       -5,44368
            764            764        174,416       -5,44377
            765            765        174,749       -5,44387
            766            766        175,082       -5,44401
            767            767        175,415       -5,44409
            768            768        175,749       -5,44413
            769            769        176,082       -5,44414
            770            770        176,415       -5,44408
            771            771        176,748       -5,44404
            772            772        177,081       -5,44403
            773            773        177,414       -5,44393
            774            774        177,747       -5,44395
            775            775        178,080       -5,44402
            776            776        178,413       -5,44413
            777            777        178,746        -5,4443
            778            778        179,079       -5,44443
            779            779        179,412       -5,44459
            780            780        179,745       -5,44477
            781            781        180,078        -5,4449
            782            782        180,412       -5,44506
            783            783        180,745       -5,44518
            784            784        181,078       -5,44534
            785            785        181,411        -5,4455
            786            786        181,744       -5,44565
            787            787        182,077       -5,44583
            788            788        182,410       -5,44602
            789            789        182,743       -5,44616
            790            790        183,076       -5,44634
            791            791        183,409       -5,44657
            792            792        183,742       -5,44681
            793            793        184,075       -5,44716
            794            794        184,408       -5,44751
            795            795        184,741       -5,44786
            796            796        185,075       -5,44822
            797            797        185,408        -5,4487
            798            798        185,741       -5,44915
            799            799        186,074       -5,44956
            800            800        186,407       -5,44997
            801            801        186,740       -5,45044
            802            802        187,073       -5,45087
            803            803        187,406       -5,45125
            804            804        187,739       -5,45161
            805            805        188,072       -5,45196
            806            806        188,405       -5,45227
            807            807        188,738       -5,45254
            808            808        189,071       -5,45281
            809            809        189,404       -5,45295
            810            810        189,737       -5,45312
            811            811        190,071       -5,45329
            812            812        190,404       -5,45343
            813            813        190,737       -5,45342
            814            814        191,070       -5,45356
            815            815        191,403       -5,45381
            816            816        191,736        -5,4541
            817            817        192,069       -5,45453
            818            818        192,402       -5,45501
            819            819        192,735       -5,45551
            820            820        193,068       -5,45602
            821            821        193,401        -5,4568
            822            822        193,734        -5,4575
            823            823        194,067       -5,45819
            824            824        194,400       -5,45887
            825            825        194,733       -5,45958
            826            826        195,066       -5,46028
            827            827        195,400       -5,46104
            828            828        195,733       -5,46184
            829            829        196,066       -5,46278
            830            830        196,399       -5,46381
            831            831        196,732        -5,4649
            832            832        197,065       -5,46599
            833            833        197,398       -5,46727
            834            834        197,731       -5,46846
            835            835        198,064       -5,46967
            836            836        198,397       -5,47087
            837            837        198,729       -5,48325
            838            838        199,056       -5,60448
            839            839        199,369       -6,02706
            840            840        199,668        -6,7117
            841            841        199,300       -7,42108
            842            842        198,949       -7,78528
            843            843        198,623       -7,63418
            844            844        198,315       -7,12944
            845            845        198,036       -6,03586
            846            846        197,762        -4,8311
            847            847        197,490       -3,59439
            848            848        197,217       -2,37605
            849            849        196,936       -1,30302
            850            850        196,650      -0,331213
            851            851        196,359       0,524421
            852            852        196,064        1,30286
            853            853        195,760        1,91537
            854            854        195,453        2,45644
            855            855        195,143        2,92229
            856            856        194,830        3,34104
            857            857        194,512        3,66538
            858            858        194,192        3,95094
            859            859        193,871        4,19673
            860            860        193,548        4,41749
            861            861        193,223        4,58786
            862            862        192,897        4,73828
            863            863        192,569        4,86794
            864            864        192,241        4,98446
            865            865        191,912        5,07431
            866            866        191,582        5,15393
            867            867        191,252        5,22269
            868            868        190,921        5,28112
            869            869        190,590         5,3339
            870            870        190,259        5,37593
            871            871        189,927        5,41214
            872            872        189,595        5,44272
            873            873        189,263        5,47101
            874            874        188,930        5,49444
            875            875        188,598        5,51426
            876            876        188,265        5,53188
            877            877        187,932        5,54811
            878            878        187,599        5,56079
            879            879        187,266        5,57171
            880            880        186,933        5,58069
            881            881        186,600        5,58912
            882            882        186,266        5,59614
            883            883        185,933         5,6018
            884            884        185,600        5,60596
            885            885        185,266         5,6095
            886            886        184,933        5,61242
            887            887        184,599        5,61533
            888            888        184,266        5,61796
            889            889        183,932        5,61984
            890            890        183,599        5,62079
            891            891        183,265        5,62214
            892            892        182,932        5,62342
            893            893        182,598        5,62461
            894            894        182,265        5,62521
            895            895        181,931        5,62596
            896            896        181,597        5,62662
            897            897        181,264        5,62717
            898            898        180,930        5,62726
            899            899        180,597        5,62743
            900            900        180,263        5,62753
            901            901        179,930         5,6276
            902            902        179,596        5,62717
            903            903        179,262        5,62684
            904            904        178,929        5,62642
            905            905        178,595        5,62593
            906            906        178,261        5,62508
            907            907        177,928        5,62436
            908            908        177,594        5,62364
            909            909        177,261        5,62285
            910            910        176,927        5,62188
            911            911        176,593        5,62091
            912            912        176,260        5,61986
            913            913        175,926        5,61876
            914            914        175,592        5,61741
            915            915        175,259        5,61623
            916            916        174,925         5,6151
            917            917        174,591        5,61397
            918            918        174,258        5,61265
            919            919        173,924         5,6113
            920            920        173,590        5,60988
            921            921        173,257        5,60844
            922            922        172,923        5,60675
            923            923        172,589        5,60516
            924            924        172,256        5,60355
            925            925        171,922        5,60191
            926            926        171,588        5,60012
            927            927        171,255        5,59835
            928            928        170,921        5,59649
            929            929        170,587        5,59455
            930            930        170,254        5,59231
            931            931        169,920        5,59002
            932            932        169,586        5,58756
            933            933        169,252        5,58497
            934            934        168,919         5,5818
            935            935        168,585        5,57873
            936            936        168,251        5,57557
            937            937        167,917         5,5723
            938            938        167,584        5,56856
            939            939        167,250        5,56506
            940            940        166,916        5,56161
            941            941        166,582        5,55815
            942            942        166,249        5,55453
            943            943        165,915        5,55092
            944            944        165,581        5,54732
            945            945        165,247        5,54376
            946            946        164,914        5,54014
            947            947        164,580        5,53657
            948            948        164,246        5,53306
            949            949        163,912        5,52957
            950            950        163,579        5,52618
            951            951        163,245        5,52276
            952            952        162,911        5,51935
            953            953        162,577        5,51599
            954            954        162,244        5,51292
            955            955        161,910        5,50992
            956            956        161,576        5,50707
            957            957        161,242        5,50431
            958            958        160,909        5,50196
            959            959        160,575        5,49945
            960            960        160,241        5,49693
            961            961        159,908        5,49441
            962            962        159,574        5,49209
            963            963        159,240        5,48984
            964            964        158,906        5,48768
            965            965        158,573        5,48556
            966            966        158,239        5,48368
            967            967        157,905         5,4818
            968            968        157,572        5,47999
            969            969        157,238        5,47822
            970            970        156,904         5,4768
            971            971        156,571        5,47547
            972            972        156,237        5,47424
            973            973        155,903        5,47311
            974            974        155,570        5,47258
            975            975        155,236        5,47188
            976            976        154,902        5,47121
            977            977        154,569         5,4706
            978            978        154,235        5,47024
            979            979        153,902        5,46976
            980            980        153,568        5,46932
            981            981        153,234        5,46894
            982            982        152,901        5,46869
            983            983        152,567        5,46847
            984            984        152,234        5,46827
            985            985        151,900        5,46813
            986            986        151,566        5,46815
            987            987        151,233        5,46791
            988            988        150,899        5,46751
            989            989        150,565        5,46704
            990            990        150,232        5,46619
            991            991        149,898        5,46527
            992            992        149,564        5,46419
            993            993        149,231        5,46299
            994            994        148,897        5,46114
            995            995        148,563        5,45937
            996            996        148,230        5,45745
            997            997        147,896        5,45539
            998            998        147,562        5,45274
            999            999        147,229        5,45034
           1000           1000        146,895        5,44797
           1001           1001        146,561         5,4456
           1002           1002        146,228        5,44307
           1003           1003        145,894        5,44067
           1004           1004        145,560        5,43843
           1005           1005        145,226        5,43628
           1006           1006        144,893        5,43404
           1007           1007        144,559        5,43175
           1008           1008        144,225        5,42982
           1009           1009        143,892        5,42801
           1010           1010        143,558        5,42373
           1011           1011        143,224        5,41999
           1012           1012        142,890        5,41567
           1013           1013        142,557        5,41146
           1014           1014        142,223        5,40719
           1015           1015        141,889        5,40287
           1016           1016        141,555        5,39939
           1017           1017        141,221        5,39661
           1018           1018        140,888        5,39456
           1019           1019        140,554        5,39255
           1020           1020        140,220         5,3909
           1021           1021        139,887        5,38927
           1022           1022        139,553        5,38822
           1023           1023        139,219        5,38695
           1024           1024        138,886        5,38571
           1025           1025        138,552        5,38447
           1026           1026        138,218        5,38353
           1027           1027        137,885        5,38257
           1028           1028        137,551         5,3817
           1029           1029        137,218         5,3809
           1030           1030        136,884        5,38028
           1031           1031        136,550        5,37949
           1032           1032        136,217        5,37864
           1033           1033        135,883         5,3778
           1034           1034        135,549        5,37688
           1035           1035        135,216        5,37582
           1036           1036        134,882        5,37457
           1037           1037        134,548        5,37316
           1038           1038        134,215        5,37125
           1039           1039        133,881        5,36939
           1040           1040        133,547        5,36734
           1041           1041        133,214        5,36519
           1042           1042        132,880        5,36242
           1043           1043        132,546        5,35977
           1044           1044        132,212        5,35706
           1045           1045        131,879        5,35429
           1046           1046        131,545        5,35113
           1047           1047        131,211        5,34816
           1048           1048        130,878         5,3453
           1049           1049        130,544        5,34255
           1050           1050        130,210        5,33985
           1051           1051        129,876        5,33724
           1052           1052        129,543        5,33507
           1053           1053        129,209        5,33318
           1054           1054        128,875        5,33196
           1055           1055        128,542        5,33131
           1056           1056        128,208        5,33133
           1057           1057        127,875         5,3315
           1058           1058        127,541        5,33191
           1059           1059        127,207        5,33222
           1060           1060        126,874        5,33219
           1061           1061        126,540        5,33231
           1062           1062        126,207        5,33355
           1063           1063        125,873        5,33806
           1064           1064        125,540        5,34356
           1065           1065        125,206        5,34929
           1066           1066        124,873        5,35345
           1067           1067        124,539        5,35663
           1068           1068        124,206        5,35847
           1069           1069        123,872        5,35986
           1070           1070        123,539        5,35984
           1071           1071        123,205        5,35967
           1072           1072        122,871        5,35883
           1073           1073        122,538         5,3577
           1074           1074        122,204        5,35629
           1075           1075        121,870        5,35493
           1076           1076        121,537        5,35346
           1077           1077        121,203        5,35194
           1078           1078        120,869        5,35003
           1079           1079        120,536         5,3483
           1080           1080        120,202         5,3464
           1081           1081        119,868         5,3443
           1082           1082        119,535        5,34255
           1083           1083        119,201        5,34063
           1084           1084        118,867        5,33762
           1085           1085        118,533        5,33381
           1086           1086        118,200        5,33611
           1087           1087        117,866        5,33826
           1088           1088        117,533         5,3405
           1089           1089        117,199        5,34272
           1090           1090        116,866        5,34483
           1091           1091        116,532        5,34678
           1092           1092        116,199        5,34864
           1093           1093        115,865        5,35059
           1094           1094        115,532        5,35158
           1095           1095        115,198        5,35249
           1096           1096        114,864        5,35305
           1097           1097        114,531        5,35321
           1098           1098        114,197         5,3529
           1099           1099        113,863        5,35272
           1100           1100        113,530        5,35258
           1101           1101        113,196        5,35232
           1102           1102        112,863        5,35096
           1103           1103        112,529        5,34802
           1104           1104        112,195        5,34473
           1105           1105        111,861        5,34316
           1106           1106        111,528        5,34306
           1107           1107        111,194        5,34302
           1108           1108        110,861        5,34303
           1109           1109        110,527        5,34299
           1110           1110        110,193        5,34349
           1111           1111        109,860        5,34389
           1112           1112        109,526        5,34426
           1113           1113        109,192        5,34453
           1114           1114        108,859        5,34518
           1115           1115        108,525        5,34549
           1116           1116        108,192        5,34528
           1117           1117        107,858        5,34489
           1118           1118        107,524        5,34195
           1119           1119        107,191        5,33926
           1120           1120        106,857        5,33661
           1121           1121        106,523        5,33395
           1122           1122        106,189        5,33078
           1123           1123        105,856        5,32764
           1124           1124        105,522        5,32441
           1125           1125        105,188        5,32109
           1126           1126        104,854        5,31737
           1127           1127        104,521        5,31384
           1128           1128        104,187        5,31033
           1129           1129        103,853        5,30681
           1130           1130        103,519        5,30329
           1131           1131        103,186        5,29985
           1132           1132        102,852        5,29658
           1133           1133        102,518        5,29343
           1134           1134        102,184        5,29029
           1135           1135        101,851        5,28731
           1136           1136        101,517        5,28507
           1137           1137        101,183        5,28357
           1138           1138        100,850        5,28271
           1139           1139        100,516        5,28193
           1140           1140        100,182        5,28135
           1141           1141         99,849        5,28061
           1142           1142         99,515        5,28051
           1143           1143         99,182        5,27976
           1144           1144         98,848        5,27721
           1145           1145         98,514        5,27325
           1146           1146         98,180        5,27582
           1147           1147         97,847        5,27851
           1148           1148         97,513        5,28093
           1149           1149         97,180        5,28353
           1150           1150         96,846        5,28476
           1151           1151         96,513         5,2857
           1152           1152         96,179         5,2861
           1153           1153         95,845        5,28638
           1154           1154         95,512        5,28641
           1155           1155         95,178        5,28651
           1156           1156         94,845         5,2866
           1157           1157         94,511        5,28668
           1158           1158         94,177        5,28651
           1159           1159         93,844        5,28637
           1160           1160         93,510        5,28612
           1161           1161         93,176        5,28577
           1162           1162         92,843        5,28509
           1163           1163         92,509        5,28433
           1164           1164         92,175         5,2834
           1165           1165         91,842        5,28236
           1166           1166         91,508        5,28069
           1167           1167         91,174        5,27913
           1168           1168         90,841        5,27755
           1169           1169         90,507        5,27589
           1170           1170         90,173        5,27396
           1171           1171         89,840        5,27221
           1172           1172         89,506        5,27051
           1173           1173         89,172        5,26886
           1174           1174         88,839        5,26735
           1175           1175         88,505        5,26573
           1176           1176         88,171         5,2641
           1177           1177         87,838        5,26253
           1178           1178         87,504        5,26094
           1179           1179         87,170        5,25932
           1180           1180         86,837        5,25772
           1181           1181         86,503        5,25607
           1182           1182         86,169        5,25418
           1183           1183         85,836        5,25221
           1184           1184         85,502        5,25016
           1185           1185         85,168        5,24808
           1186           1186         84,834        5,24552
           1187           1187         84,501        5,24303
           1188           1188         84,167        5,24048
           1189           1189         83,833        5,23791
           1190           1190         83,500        5,23506
           1191           1191         83,166        5,23232
           1192           1192         82,832        5,22959
           1193           1193         82,498        5,22685
           1194           1194         82,165        5,22401
           1195           1195         81,831        5,22118
           1196           1196         81,497        5,21842
           1197           1197         81,164        5,21576
           1198           1198         80,830        5,21329
           1199           1199         80,496        5,21086
           1200           1200         80,162        5,20845
           1201           1201         79,829        5,20604
           1202           1202         79,495        5,20374
           1203           1203         79,161        5,20122
           1204           1204         78,828        5,19861
           1205           1205         78,494        5,19601
           1206           1206         78,160        5,19321
           1207           1207         77,826        5,19062
           1208           1208         77,493        5,18809
           1209           1209         77,159        5,18561
           1210           1210         76,825        5,18332
           1211           1211         76,492        5,18101
           1212           1212         76,158        5,17884
           1213           1213         75,824         5,1768
           1214           1214         75,491        5,17496
           1215           1215         75,157        5,17316
           1216           1216         74,823        5,17148
           1217           1217         74,490         5,1702
           1218           1218         74,156        5,16956
           1219           1219         73,822        5,16914
           1220           1220         73,489        5,16854
           1221           1221         73,155        5,16791
           1222           1222         72,821         5,1675
           1223           1223         72,488        5,16694
           1224           1224         72,154        5,16634
           1225           1225         71,820        5,16575
           1226           1226         71,487        5,16502
           1227           1227         71,153        5,16428
           1228           1228         70,819        5,16346
           1229           1229         70,486        5,16256
           1230           1230         70,152        5,16141
           1231           1231         69,818        5,16033
           1232           1232         69,485        5,15918
           1233           1233         69,151        5,15797
           1234           1234         68,817         5,1567
           1235           1235         68,484        5,15547
           1236           1236         68,150        5,15421
           1237           1237         67,816        5,15301
           1238           1238         67,483         5,1518
           1239           1239         67,149        5,15052
           1240           1240         66,815        5,14922
           1241           1241         66,482        5,14794
           1242           1242         66,148        5,14652
           1243           1243         65,814        5,14509
           1244           1244         65,481        5,14358
           1245           1245         65,147        5,14205
           1246           1246         64,813        5,14043
           1247           1247         64,480        5,13876
           1248           1248         64,146        5,13708
           1249           1249         63,812        5,13548
           1250           1250         63,479        5,13391
           1251           1251         63,145        5,13248
           1252           1252         62,811        5,13112
           1253           1253         62,478        5,12977
           1254           1254         62,144        5,12882
           1255           1255         61,810        5,12782
           1256           1256         61,477        5,12674
           1257           1257         61,143         5,1256
           1258           1258         60,809        5,12457
           1259           1259         60,476        5,12332
           1260           1260         60,142        5,12192
           1261           1261         59,808        5,12055
           1262           1262         59,475         5,1187
           1263           1263         59,141        5,11701
           1264           1264         58,807        5,11529
           1265           1265         58,474        5,11354
           1266           1266         58,140        5,11182
           1267           1267         57,806        5,11032
           1268           1268         57,473        5,10858
           1269           1269         57,139        5,10657
           1270           1270         56,805        5,10698
           1271           1271         56,472        5,10673
           1272           1272         56,138        5,10629
           1273           1273         55,804        5,10585
           1274           1274         55,471        5,10546
           1275           1275         55,137        5,10499
           1276           1276         54,804        5,10453
           1277           1277         54,470        5,10404
           1278           1278         54,136        5,10347
           1279           1279         53,803        5,10302
           1280           1280         53,469        5,10262
           1281           1281         53,135        5,10225
           1282           1282         52,802        5,10221
           1283           1283         52,468        5,10205
           1284           1284         52,134        5,10171
           1285           1285         51,801        5,10145
           1286           1286         51,467        5,10223
           1287           1287         51,134        5,10181
           1288           1288         50,800        5,09861
           1289           1289         50,466        5,09491
           1290           1290         50,133        5,09838
           1291           1291         49,799         5,1012
           1292           1292         49,466        5,10268
           1293           1293         49,132        5,10293
           1294           1294         48,798        5,10081
           1295           1295         48,465        5,09876
           1296           1296         48,131         5,0962
           1297           1297         47,797        5,09378
           1298           1298         47,463        5,09112
           1299           1299         47,130        5,08906
           1300           1300         46,796        5,08832
           1301           1301         46,463        5,08803
           1302           1302         46,129        5,08768
           1303           1303         45,795        5,08705
           1304           1304         45,462        5,08639
           1305           1305         45,128        5,08567
           1306           1306         44,794         5,0846
           1307           1307         44,461        5,08371
           1308           1308         44,127        5,08282
           1309           1309         43,793        5,08185
           1310           1310         43,460         5,0811
           1311           1311         43,126        5,08049
           1312           1312         42,793        5,07962
           1313           1313         42,459        5,07845
           1314           1314         42,125         5,0793
           1315           1315         41,792        5,08037
           1316           1316         41,458        5,08122
           1317           1317         41,124        5,08225
           1318           1318         40,791         5,0808
           1319           1319         40,457        5,07979
           1320           1320         40,124        5,07857
           1321           1321         39,790        5,07751
           1322           1322         39,456        5,07627
           1323           1323         39,123        5,07517
           1324           1324         38,789        5,07407
           1325           1325         38,455        5,07296
           1326           1326         38,122        5,07227
           1327           1327         37,788        5,07141
           1328           1328         37,454        5,07058
           1329           1329         37,121        5,06982
           1330           1330         36,787        5,06915
           1331           1331         36,453        5,06847
           1332           1332         36,120        5,06775
           1333           1333         35,786        5,06703
           1334           1334         35,453        5,06645
           1335           1335         35,119        5,06594
           1336           1336         34,785        5,06552
           1337           1337         34,452        5,06518
           1338           1338         34,118        5,06508
           1339           1339         33,784        5,06504
           1340           1340         33,451        5,06505
           1341           1341         33,117        5,06502
           1342           1342         32,784        5,06518
           1343           1343         32,450        5,06521
           1344           1344         32,116        5,06524
           1345           1345         31,783        5,06535
           1346           1346         31,449        5,06535
           1347           1347         31,115        5,06547
           1348           1348         30,782        5,06575
           1349           1349         30,448        5,06594
           1350           1350         30,115        5,06605
           1351           1351         29,781        5,06643
           1352           1352         29,447        5,06866
           1353           1353         29,114        5,07047
           1354           1354         28,780        5,07173
           1355           1355         28,447        5,07316
           1356           1356         28,113        5,07467
           1357           1357         27,780        5,07618
           1358           1358         27,446        5,07763
           1359           1359         27,112        5,07915
           1360           1360         26,779        5,08079
           1361           1361         26,445        5,08255
           1362           1362         26,112        5,08458
           1363           1363         25,778        5,08637
           1364           1364         25,444        5,08892
           1365           1365         25,111          5,092
           1366           1366         24,777         5,0966
           1367           1367         24,444        5,10105
           1368           1368         24,110        5,10582
           1369           1369         23,777        5,11092
           1370           1370         23,443        5,11701
           1371           1371         23,110        5,12281
           1372           1372         22,776         5,1295
           1373           1373         22,443        5,13752
           1374           1374         22,110        5,14694
           1375           1375         21,776        5,15655
           1376           1376         21,443         5,1668
           1377           1377         21,109        5,17762
           1378           1378         20,776        5,18935
           1379           1379         20,443        5,20306
           1380           1380         20,109        5,22034
           1381           1381         19,776         5,2385
           1382           1382         19,443        5,26374
           1383           1383         19,110        5,29101
           1384           1384         18,777        5,32521
           1385           1385         18,444        5,36622
           1386           1386         18,112        5,42671
           1387           1387         17,780        5,50005
           1388           1388         17,448         5,5945
           1389           1389         17,117        5,70521
           1390           1390         16,786        5,87173
           1391           1391         16,457        6,07342
           1392           1392         16,128        6,32034
           1393           1393         15,800        6,60097
           1394           1394         15,474        6,96299
           1395           1395         15,148        7,35802
           1396           1396         14,823         7,7821
           1397           1397         14,498        8,21912
           1398           1398         14,172        8,64371
           1399           1399         13,846        9,03803
           1400           1400         13,519        9,38174
           1401           1401         13,191        9,68511
           1402           1402         12,861        9,88098
           1403           1403         12,530        10,0212
           1404           1404         12,198        10,1006
           1405           1405         11,865        10,1401
           1406           1406         11,530        10,1048
           1407           1407         11,195        10,0398
           1408           1408         10,859        9,94719
           1409           1409         10,523        9,83948
           1410           1410         10,187        9,70683
           1411           1411          9,850        9,56594
           1412           1412          9,514        9,41901
           1413           1413          9,177         9,2707
           1414           1414          8,840         9,1221
           1415           1415          8,504        8,97511
           1416           1416          8,167        8,83031
           1417           1417          7,830        8,68672
           1418           1418          7,494        8,54986
           1419           1419          7,158        8,41423
           1420           1420          6,821        8,28141
           1421           1421          6,485        8,15234
           1422           1422          6,149        8,04739
           1423           1423          5,815        7,99891
           1424           1424          5,483        8,09466
           1425           1425          5,153        8,33634
           1426           1426          4,832        8,98883
           1427           1427          4,511        9,74164
           1428           1428          4,191        10,4946
           1429           1429          3,870        11,1992
           1430           1430          3,545        11,7094
           1431           1431          3,219        12,1294
           1432           1432          2,891        12,4698
           1433           1433          2,562        12,7666
           1434           1434          2,232        12,9857
           1435           1435          1,901        13,1649
           1436           1436          1,570        13,3003
           1437           1437          1,238        13,4108
           1438           1438          0,905        13,5008
           1439           1439          0,573        13,6031
           1440           1440          0,241        13,7226
           1441           1441    -91,000e-03        13,8527
           1442           1442         -0,423        13,9698
           1443           1443         -0,756        14,0582
           1444           1444         -1,089        14,1016
           1445           1445         -1,423        14,1112
           1446           1446         -1,758        14,0349
           1447           1447         -2,095         13,918
           1448           1448         -2,431        13,7604
           1449           1449         -2,769         13,578
           1450           1450         -3,107        13,3493
           1451           1451         -3,445        13,1041
           1452           1452         -3,783        12,8444
           1453           1453         -4,122        12,5773
           1454           1454         -4,461        12,2968
           1455           1455         -4,799         12,017
           1456           1456         -5,138        11,7383
           1457           1457         -5,477        11,4608
           1458           1458         -5,815        11,1907
           1459           1459         -6,153        10,9256
           1460           1460         -6,491        10,6673
           1461           1461         -6,830        10,4151
           1462           1462         -7,167        10,1753
           1463           1463         -7,505        9,94407
           1464           1464         -7,843        9,72091
           1465           1465         -8,180        9,50298
           1466           1466         -8,517        9,29905
           1467           1467         -8,854        9,10183
           1468           1468         -9,191        8,91283
           1469           1469         -9,528        8,72847
           1470           1470         -9,864        8,55758
           1471           1471        -10,201        8,39269
           1472           1472        -10,537        8,23638
           1473           1473        -10,873        8,08484
           1474           1474        -11,209        7,94169
           1475           1475        -11,545        7,80144
           1476           1476        -11,881        7,66759
           1477           1477        -12,217        7,53734
           1478           1478        -12,552         7,4151
           1479           1479        -12,888        7,29805
           1480           1480        -13,223        7,18573
           1481           1481        -13,559        7,07643
           1482           1482        -13,894        6,97521
           1483           1483        -14,229        6,87556
           1484           1484        -14,564        6,77943
           1485           1485        -14,900        6,68416
           1486           1486        -15,235        6,59566
           1487           1487        -15,570        6,51147
           1488           1488        -15,905        6,42902
           1489           1489        -16,239        6,34766
           1490           1490        -16,574        6,26896
           1491           1491        -16,909        6,19385
           1492           1492        -17,244        6,12075
           1493           1493        -17,578        6,05005
           1494           1494        -17,913        5,98118
           1495           1495        -18,248        5,91589
           1496           1496        -18,582        5,85377
           1497           1497        -18,917        5,79247
           1498           1498        -19,251        5,73348
           1499           1499        -19,586        5,67819
           1500           1500        -19,920        5,62383
           1501           1501        -20,255        5,56968
           1502           1502        -20,589        5,52111
           1503           1503        -20,923        5,47317
           1504           1504        -21,258        5,42632
           1505           1505        -21,592        5,38018
           1506           1506        -21,926        5,33504
           1507           1507        -22,260        5,29027
           1508           1508        -22,594        5,24724
           1509           1509        -22,929        5,20549
           1510           1510        -23,263        5,16665
           1511           1511        -23,597        5,12785
           1512           1512        -23,931        5,08954
           1513           1513        -24,265        5,05135
           1514           1514        -24,599         5,0155
           1515           1515        -24,933        4,98059
           1516           1516        -25,267        4,94674
           1517           1517        -25,601        4,91298
           1518           1518        -25,935        4,88149
           1519           1519        -26,269        4,85312
           1520           1520        -26,603        4,82397
           1521           1521        -26,937        4,79362
           1522           1522        -27,271        4,76309
           1523           1523        -27,605        4,73307
           1524           1524        -27,939        4,70466
           1525           1525        -28,273        4,67748
           1526           1526        -28,607        4,65063
           1527           1527        -28,941        4,62317
           1528           1528        -29,275        4,59576
           1529           1529        -29,609        4,56831
           1530           1530        -29,943        4,54065
           1531           1531        -30,277         4,5141
           1532           1532        -30,611        4,49056
           1533           1533        -30,944        4,46759
           1534           1534        -31,278        4,44304
           1535           1535        -31,612         4,4191
           1536           1536        -31,946        4,39798
           1537           1537        -32,280        4,37744
           1538           1538        -32,614        4,35539
           1539           1539        -32,947        4,33316
           1540           1540        -33,281        4,31151
           1541           1541        -33,615        4,28952
           1542           1542        -33,949         4,2458
           1543           1543        -34,284        4,11425
           1544           1544        -34,620         3,9456
           1545           1545        -34,954        3,88905
           1546           1546        -35,287        3,91881
           1547           1547        -35,621        3,94117
           1548           1548        -35,954        3,95569
           1549           1549        -36,287        3,96587
           1550           1550        -36,621        3,96175
           1551           1551        -36,954         3,9572
           1552           1552        -37,288        3,95041
           1553           1553        -37,622        3,93978
           1554           1554        -37,955        3,92857
           1555           1555        -38,289        3,91567
           1556           1556        -38,623          3,898
           1557           1557        -38,957        3,87894
           1558           1558        -39,290        3,86326
           1559           1559        -39,624        3,83757
           1560           1560        -39,957         3,8992
           1561           1561        -40,288        4,16335
           1562           1562        -40,621        4,21942
           1563           1563        -40,954        4,19749
           1564           1564        -41,288        4,15201
           1565           1565        -41,622        4,10341
           1566           1566        -41,956        4,06033
           1567           1567        -42,290         4,0283
           1568           1568        -42,624        4,00597
           1569           1569        -42,958        3,97959
           1570           1570        -43,292        3,94949
           1571           1571        -43,626        3,92026
           1572           1572        -43,959        3,89535
           1573           1573        -44,293        3,87459
           1574           1574        -44,627        3,85788
           1575           1575        -44,960        3,84246
           1576           1576        -45,294        3,82651
           1577           1577        -45,628        3,80752
           1578           1578        -45,962        3,78512
           1579           1579        -46,295         3,7635
           1580           1580        -46,629        3,74453
           1581           1581        -46,963        3,72629
           1582           1582        -47,296        3,70821
           1583           1583        -47,630        3,68994
           1584           1584        -47,964        3,67298
           1585           1585        -48,297        3,65929
           1586           1586        -48,631        3,64468
           1587           1587        -48,965         3,6278
           1588           1588        -49,298        3,61519
           1589           1589        -49,632        3,60414
           1590           1590        -49,966        3,59365
           1591           1591        -50,299        3,58279
           1592           1592        -50,633        3,57177
           1593           1593        -50,966        3,56034
           1594           1594        -51,300         3,5431
           1595           1595        -51,634        3,52931
           1596           1596        -51,967        3,51648
           1597           1597        -52,301          3,504
           1598           1598        -52,635        3,49162
           1599           1599        -52,968        3,47973
           1600           1600        -53,302         3,4689
           1601           1601        -53,635        3,45809
           1602           1602        -53,969        3,44729
           1603           1603        -54,303        3,43626
           1604           1604        -54,636        3,42498
           1605           1605        -54,970        3,41416
           1606           1606        -55,303        3,40426
           1607           1607        -55,637        3,39283
           1608           1608        -55,971        3,38175
           1609           1609        -56,304        3,37377
           1610           1610        -56,638        3,36441
           1611           1611        -56,971        3,35389
           1612           1612        -57,305        3,34359
           1613           1613        -57,638        3,33547
           1614           1614        -57,972        3,32837
           1615           1615        -58,306        3,32335
           1616           1616        -58,639        3,31752
           1617           1617        -58,973        3,31044
           1618           1618        -59,306        3,30305
           1619           1619        -59,640        3,29692
           1620           1620        -59,973        3,29212
           1621           1621        -60,307         3,2876
           1622           1622        -60,640        3,28443
           1623           1623        -60,974        3,28075
           1624           1624        -61,307        3,27766
           1625           1625        -61,641        3,27565
           1626           1626        -61,974        3,27437
           1627           1627        -62,308        3,27138
           1628           1628        -62,641        3,26505
           1629           1629        -62,975        3,26028
           1630           1630        -63,308        3,25732
           1631           1631        -63,642        3,25397
           1632           1632        -63,975        3,25078
           1633           1633        -64,309        3,24752
           1634           1634        -64,642        3,24614
           1635           1635        -64,976        3,24422
           1636           1636        -65,309        3,23966
           1637           1637        -65,643        3,23464
           1638           1638        -65,976        3,22919
           1639           1639        -66,310        3,22394
           1640           1640        -66,643        3,21812
           1641           1641        -66,977        3,21125
           1642           1642        -67,311        3,20211
           1643           1643        -67,644        3,19316
           1644           1644        -67,978        3,18389
           1645           1645        -68,311        3,17408
           1646           1646        -68,645        3,15918
           1647           1647        -68,978         3,1482
           1648           1648        -69,312         3,1386
           1649           1649        -69,645        3,12955
           1650           1650        -69,979        3,11485
           1651           1651        -70,312        3,10207
           1652           1652        -70,646        3,08927
           1653           1653        -70,980        3,07536
           1654           1654        -71,313        3,06171
           1655           1655        -71,647        3,04756
           1656           1656        -71,980        3,03251
           1657           1657        -72,314        3,01749
           1658           1658        -72,647        3,00353
           1659           1659        -72,981        2,99143
           1660           1660        -73,314        2,97969
           1661           1661        -73,648        2,96584
           1662           1662        -73,982        2,95215
           1663           1663        -74,315        2,94079
           1664           1664        -74,649        2,92889
           1665           1665        -74,982        2,91632
           1666           1666        -75,316        2,90362
           1667           1667        -75,649        2,89065
           1668           1668        -75,983        2,87595
           1669           1669        -76,316        2,86142
           1670           1670        -76,650        2,85222
           1671           1671        -76,983        2,84118
           1672           1672        -77,317        2,82779
           1673           1673        -77,650        2,81464
           1674           1674        -77,984          2,804
           1675           1675        -78,317        2,79258
           1676           1676        -78,651        2,78139
           1677           1677        -78,984        2,77211
           1678           1678        -79,318        2,76209
           1679           1679        -79,652        2,74836
           1680           1680        -79,985        2,74777
           1681           1681        -79,651         2,7713
           1682           1682        -79,317        2,93076
           1683           1683        -78,981        3,43818
           1684           1684        -78,641        4,50164
           1685           1685        -78,300        5,90168
           1686           1686        -77,959        7,19217
           1687           1687        -77,620        8,02437
           1688           1688        -77,285        8,30238
           1689           1689        -76,952        8,23162
           1690           1690        -76,622        7,57966
           1691           1691        -76,293        6,79581
           1692           1692        -75,965        5,92957
           1693           1693        -75,636        5,03915
           1694           1694        -75,308        4,17948
           1695           1695        -74,979        3,36591
           1696           1696        -74,651        2,60934
           1697           1697        -74,322        1,89541
           1698           1698        -73,992        1,28561
           1699           1699        -73,662       0,730444
           1700           1700        -73,332       0,229483
           1701           1701        -73,002      -0,235707
           1702           1702        -72,671      -0,615839
           1703           1703        -72,340      -0,961149
           1704           1704        -72,008       -1,27219
           1705           1705        -71,677       -1,56035
           1706           1706        -71,345       -1,79084
           1707           1707        -71,013       -1,99473
           1708           1708        -70,681       -2,17489
           1709           1709        -70,349       -2,34045
           1710           1710        -70,017       -2,48158
           1711           1711        -69,684       -2,60398
           1712           1712        -69,352       -2,70143
           1713           1713        -69,019        -2,8025
           1714           1714        -68,687       -2,88271
           1715           1715        -68,354       -2,95574
           1716           1716        -68,021       -3,02108
           1717           1717        -67,688       -3,07943
           1718           1718        -67,356        -3,1221
           1719           1719        -67,023        -3,1641
           1720           1720        -66,690       -3,19729
           1721           1721        -66,357        -3,2276
           1722           1722        -66,024       -3,25253
           1723           1723        -65,691       -3,27319
           1724           1724        -65,358         -3,292
           1725           1725        -65,025       -3,30961
           1726           1726        -64,692       -3,32413
           1727           1727        -64,358       -3,33639
           1728           1728        -64,025       -3,34881
           1729           1729        -63,692       -3,36117
           1730           1730        -63,359       -3,36415
           1731           1731        -63,026       -3,36756
           1732           1732        -62,693       -3,37197
           1733           1733        -62,360       -3,37755
           1734           1734        -62,027       -3,37845
           1735           1735        -61,693       -3,38112
           1736           1736        -61,360       -3,38283
           1737           1737        -61,027       -3,38513
           1738           1738        -60,694       -3,38681
           1739           1739        -60,361       -3,38805
           1740           1740        -60,028       -3,38892
           1741           1741        -59,694       -3,38991
           1742           1742        -59,361       -3,39027
           1743           1743        -59,028       -3,39172
           1744           1744        -58,695       -3,39502
           1745           1745        -58,362       -3,39822
           1746           1746        -58,029       -3,39905
           1747           1747        -57,695       -3,39903
           1748           1748        -57,362       -3,39958
           1749           1749        -57,029       -3,40261
           1750           1750        -56,696       -3,40385
           1751           1751        -56,363       -3,40861
           1752           1752        -56,030       -3,41188
           1753           1753        -55,696       -3,41138
           1754           1754        -55,363       -3,41457
           1755           1755        -55,030       -3,41727
           1756           1756        -54,697       -3,42028
           1757           1757        -54,364       -3,42364
           1758           1758        -54,031       -3,42947
           1759           1759        -53,698       -3,43007
           1760           1760        -53,364       -3,43346
           1761           1761        -53,031       -3,43999
           1762           1762        -52,698       -3,44612
           1763           1763        -52,365        -3,4518
           1764           1764        -52,032       -3,45703
           1765           1765        -51,699        -3,4618
           1766           1766        -51,366       -3,46645
           1767           1767        -51,033       -3,47142
           1768           1768        -50,700       -3,47649
           1769           1769        -50,366       -3,48158
           1770           1770        -50,033       -3,48695
           1771           1771        -49,700       -3,49221
           1772           1772        -49,367        -3,4979
           1773           1773        -49,034       -3,50448
           1774           1774        -48,701       -3,51185
           1775           1775        -48,368       -3,51878
           1776           1776        -48,035       -3,52617
           1777           1777        -47,702       -3,53413
           1778           1778        -47,369       -3,53884
           1779           1779        -47,035       -3,54729
           1780           1780        -46,702       -3,55939
           1781           1781        -46,369       -3,57236
           1782           1782        -46,036       -3,57907
           1783           1783        -45,703       -3,58658
           1784           1784        -45,370       -3,59427
           1785           1785        -45,037       -3,60186
           1786           1786        -44,704        -3,6097
           1787           1787        -44,371       -3,61992
           1788           1788        -44,038       -3,63667
           1789           1789        -43,705       -3,65532
           1790           1790        -43,372       -3,67403
           1791           1791        -43,039       -3,69253
           1792           1792        -42,706       -3,70953
           1793           1793        -42,373       -3,72427
           1794           1794        -42,040       -3,73682
           1795           1795        -41,707       -3,74956
           1796           1796        -41,374       -3,76168
           1797           1797        -41,041       -3,77268
           1798           1798        -40,708       -3,78283
           1799           1799        -40,375       -3,79365
           1800           1800        -40,042       -3,80552
           1801           1801        -39,709        -3,8175
           1802           1802        -39,376       -3,82929
           1803           1803        -39,043       -3,84091
           1804           1804        -38,710       -3,85189
           1805           1805        -38,377       -3,86247
           1806           1806        -38,044       -3,87177
           1807           1807        -37,711       -3,88085
           1808           1808        -37,378       -3,88857
           1809           1809        -37,045       -3,89543
           1810           1810        -36,712        -3,9074
           1811           1811        -36,379       -3,91936
           1812           1812        -36,046       -3,93142
           1813           1813        -35,713       -3,94331
           1814           1814        -35,380       -3,94908
           1815           1815        -35,047        -3,9551
           1816           1816        -34,714       -3,96272
           1817           1817        -34,381       -3,97053
           1818           1818        -34,048       -3,97811
           1819           1819        -33,715       -3,98435
           1820           1820        -33,381       -3,98915
           1821           1821        -33,048       -3,99379
           1822           1822        -32,715       -3,99812
           1823           1823        -32,382       -4,00373
           1824           1824        -32,049       -4,01192
           1825           1825        -31,716       -4,02048
           1826           1826        -31,383       -4,02442
           1827           1827        -31,050       -4,02891
           1828           1828        -30,717       -4,03358
           1829           1829        -30,384       -4,03833
           1830           1830        -30,051       -4,04328
           1831           1831        -29,718       -4,04843
           1832           1832        -29,385       -4,05263
           1833           1833        -29,052         -4,054
           1834           1834        -28,719       -4,05595
           1835           1835        -28,385       -4,05821
           1836           1836        -28,052       -4,06034
           1837           1837        -27,719       -4,06257
           1838           1838        -27,386       -4,06674
           1839           1839        -27,053       -4,07042
           1840           1840        -26,720        -4,0736
           1841           1841        -26,387       -4,07589
           1842           1842        -26,054       -4,08099
           1843           1843        -25,721       -4,08309
           1844           1844        -25,388        -4,0852
           1845           1845        -25,055       -4,08705
           1846           1846        -24,722       -4,09065
           1847           1847        -24,389       -4,09574
           1848           1848        -24,056       -4,10047
           1849           1849        -23,722        -4,1051
           1850           1850        -23,389       -4,10981
           1851           1851        -23,056        -4,1148
           1852           1852        -22,723       -4,11971
           1853           1853        -22,390       -4,12469
           1854           1854        -22,057       -4,12979
           1855           1855        -21,724       -4,13522
           1856           1856        -21,391       -4,14061
           1857           1857        -21,058       -4,14637
           1858           1858        -20,725       -4,15228
           1859           1859        -20,392        -4,1588
           1860           1860        -20,059       -4,16574
           1861           1861        -19,726       -4,17373
           1862           1862        -19,393       -4,18163
           1863           1863        -19,060       -4,19205
           1864           1864        -18,727       -4,20315
           1865           1865        -18,394       -4,21459
           1866           1866        -18,061       -4,22599
           1867           1867        -17,728        -4,2382
           1868           1868        -17,396       -4,25033
           1869           1869        -17,063       -4,26313
           1870           1870        -16,730       -4,27643
           1871           1871        -16,397       -4,29038
           1872           1872        -16,064       -4,30424
           1873           1873        -15,731        -4,3181
           1874           1874        -15,398       -4,33204
           1875           1875        -15,065       -4,34794
           1876           1876        -14,732        -4,3646
           1877           1877        -14,400       -4,38189
           1878           1878        -14,067       -4,39894
           1879           1879        -13,734       -4,41593
           1880           1880        -13,401       -4,43411
           1881           1881        -13,068       -4,45521
           1882           1882        -12,736       -4,47729
           1883           1883        -12,403       -4,50138
           1884           1884        -12,070       -4,52507
           1885           1885        -11,738       -4,54924
           1886           1886        -11,405       -4,57567
           1887           1887        -11,072       -4,60358
           1888           1888        -10,740       -4,63147
           1889           1889        -10,407       -4,65935
           1890           1890        -10,074       -4,68758
           1891           1891         -9,742       -4,71669
           1892           1892         -9,409       -4,74717
           1893           1893         -9,077       -4,78098
           1894           1894         -8,744         -4,816
           1895           1895         -8,412       -4,85188
           1896           1896         -8,079       -4,88972
           1897           1897         -7,747       -4,93078
           1898           1898         -7,414       -4,97257
           1899           1899         -7,082       -5,02012
           1900           1900         -6,750       -5,06871
           1901           1901         -6,418       -5,11841
           1902           1902         -6,085       -5,16865
           1903           1903         -5,753       -5,22675
           1904           1904         -5,421       -5,28808
           1905           1905         -5,089       -5,35182
           1906           1906         -4,757       -5,41838
           1907           1907         -4,426       -5,48842
           1908           1908         -4,094       -5,56281
           1909           1909         -3,762       -5,63996
           1910           1910         -3,430       -5,71871
           1911           1911         -3,099       -5,80969
           1912           1912         -2,768       -5,90199
           1913           1913         -2,436       -5,99735
           1914           1914         -2,105       -6,09681
           1915           1915         -1,774       -6,20036
           1916           1916         -1,443       -6,30844
           1917           1917         -1,112       -6,42164
           1918           1918         -0,781       -6,53696
           1919           1919         -0,450       -6,65696
           1920           1920         -0,119       -6,78036
           1921           1921          0,212       -6,90639
           1922           1922          0,542       -7,03565
           1923           1923          0,873       -7,16881
           1924           1924          1,203       -7,30397
           1925           1925          1,534       -7,44158
           1926           1926          1,864       -7,58056
           1927           1927          2,195       -7,72697
           1928           1928          2,525       -7,87602
           1929           1929          2,855       -8,03064
           1930           1930          3,185       -8,18843
           1931           1931          3,515        -8,3557
           1932           1932          3,845       -8,52917
           1933           1933          4,174       -8,70819
           1934           1934          4,504       -8,89181
           1935           1935          4,833       -9,08981
           1936           1936          5,162        -9,2958
           1937           1937          5,491       -9,50944
           1938           1938          5,819       -9,72796
           1939           1939          6,148       -9,95621
           1940           1940          6,476       -10,1854
           1941           1941          6,805       -10,4153
           1942           1942          7,133       -10,6455
           1943           1943          7,462       -10,8653
           1944           1944          7,791       -11,0737
           1945           1945          8,120       -11,2641
           1946           1946          8,449       -11,4396
           1947           1947          8,779       -11,5723
           1948           1948          9,110       -11,6787
           1949           1949          9,441       -11,7562
           1950           1950          9,773       -11,8153
           1951           1951         10,104       -11,8569
           1952           1952         10,436       -11,9064
           1953           1953         10,768       -11,9743
           1954           1954         11,099       -12,0587
           1955           1955         11,429       -12,1787
           1956           1956         11,759       -12,3048
           1957           1957         12,089       -12,4234
           1958           1958         12,420       -12,5302
           1959           1959         12,751        -12,585
           1960           1960         13,084       -12,5935
           1961           1961         13,418       -12,5359
           1962           1962         13,752       -12,4272
           1963           1963         14,090        -12,171
           1964           1964         14,430       -11,8311
           1965           1965         14,771       -11,4008
           1966           1966         15,113       -10,9141
           1967           1967         15,458       -10,3441
           1968           1968         15,802       -9,77362
           1969           1969         16,146        -9,2265
           1970           1970         16,489       -8,70541
           1971           1971         16,831       -8,27139
           1972           1972         17,172       -7,89229
           1973           1973         17,511       -7,57568
           1974           1974         17,850       -7,30247
           1975           1975         18,186       -7,12327
           1976           1976         18,522       -6,98724
           1977           1977         18,857       -6,89913
           1978           1978         19,191       -6,84272
           1979           1979         19,524       -6,85044
           1980           1980         19,856       -6,88468
           1981           1981         20,188       -6,94565
           1982           1982         20,519       -7,02283
           1983           1983         20,850       -7,12646
           1984           1984         21,180        -7,2377
           1985           1985         21,511       -7,35351
           1986           1986         21,841       -7,46973
           1987           1987         22,172       -7,57672
           1988           1988         22,503       -7,67399
           1989           1989         22,834       -7,75627
           1990           1990         23,165       -7,82689
           1991           1991         23,497       -7,87111
           1992           1992         23,829       -7,90258
           1993           1993         24,162       -7,92021
           1994           1994         24,494       -7,92879
           1995           1995         24,827       -7,92268
           1996           1996         25,161       -7,91184
           1997           1997         25,494       -7,89873
           1998           1998         25,827       -7,88594
           1999           1999         26,160       -7,87609
           2000           2000         26,493       -7,87479
           2001           2001         26,826       -7,87815
           2002           2002         27,158       -7,88787
           2003           2003         27,491       -7,90202
           2004           2004         27,823       -7,92596
           2005           2005         28,156       -7,95148
           2006           2006         28,488       -7,97848
           2007           2007         28,820       -8,00574
           2008           2008         29,152       -8,03191
           2009           2009         29,485       -8,05411
           2010           2010         29,817       -8,07086
           2011           2011         30,150       -8,08319
           2012           2012         30,483        -8,0756
           2013           2013         30,816       -8,05313
           2014           2014         31,150        -8,0083
           2015           2015         31,485       -7,94685
           2016           2016         31,820         -7,834
           2017           2017         32,156       -7,68933
           2018           2018         32,493       -7,50381
           2019           2019         32,831       -7,28861
           2020           2020         33,171       -7,01896
           2021           2021         33,510       -6,73817
           2022           2022         33,849       -6,46412
           2023           2023         34,188        -6,2045
           2024           2024         34,526       -6,01336
           2025           2025         34,862       -5,86979
           2026           2026         35,197       -5,78448
           2027           2027         35,531       -5,73956
           2028           2028         35,863       -5,78657
           2029           2029         36,194       -5,86456
           2030           2030         36,525       -5,96217
           2031           2031         36,856        -6,0637
           2032           2032         37,187       -6,14582
           2033           2033         37,518       -6,21117
           2034           2034         37,850       -6,25877
           2035           2035         38,182       -6,29649
           2036           2036         38,514       -6,32106
           2037           2037         38,847       -6,34085
           2038           2038         39,179       -6,35519
           2039           2039         39,512       -6,36608
           2040           2040         39,845       -6,37328
           2041           2041         40,178       -6,37675
           2042           2042         40,511       -6,37742
           2043           2043         40,844       -6,37609
           2044           2044         41,177       -6,36981
           2045           2045         41,510       -6,35867
           2046           2046         41,844       -6,34397
           2047           2047         42,177       -6,32526
           2048           2048         42,511       -6,29726
           2049           2049         42,845       -6,26082
           2050           2050         43,179       -6,21399
           2051           2051         43,513       -6,15986
           2052           2052         43,848       -6,07253
           2053           2053         44,184       -5,96417
           2054           2054         44,520       -5,82742
           2055           2055         44,857        -5,6687
           2056           2056         45,194       -5,51897
           2057           2057         45,530       -5,39103
           2058           2058         45,866       -5,28792
           2059           2059         46,201       -5,20238
           2060           2060         46,536       -5,13587
           2061           2061         46,870       -5,07766
           2062           2062         47,205       -5,02888
           2063           2063         47,539       -4,98487
           2064           2064         47,873       -4,95157
           2065           2065         48,207       -4,92293
           2066           2066         48,540       -4,89927
           2067           2067         48,874       -4,87694
           2068           2068         49,207        -4,8627
           2069           2069         49,541       -4,84962
           2070           2070         49,874       -4,83847
           2071           2071         50,207       -4,82878
           2072           2072         50,541        -4,8219
           2073           2073         50,874       -4,81584
           2074           2074         51,207       -4,81048
           2075           2075         51,540       -4,80652
           2076           2076         51,873       -4,80372
           2077           2077         52,207       -4,80124
           2078           2078         52,540       -4,79891
           2079           2079         52,873       -4,79687
           2080           2080         53,206       -4,79589
           2081           2081         53,539       -4,79483
           2082           2082         53,872        -4,7941
           2083           2083         54,205       -4,79374
           2084           2084         54,538       -4,79353
           2085           2085         54,871       -4,79323
           2086           2086         55,204       -4,79296
           2087           2087         55,537       -4,79273
           2088           2088         55,870       -4,79256
           2089           2089         56,204       -4,79241
           2090           2090         56,537       -4,79233
           2091           2091         56,870       -4,79243
           2092           2092         57,203       -4,79249
           2093           2093         57,536       -4,79262
           2094           2094         57,869       -4,79345
           2095           2095         58,202       -4,79541
           2096           2096         58,535       -4,79961
           2097           2097         58,868       -4,80217
           2098           2098         59,201       -4,80181
           2099           2099         59,534        -4,8016
           2100           2100         59,867       -4,80159
           2101           2101         60,200       -4,80184
           2102           2102         60,533       -4,80196
           2103           2103         60,866         -4,802
           2104           2104         61,199       -4,80211
           2105           2105         61,532       -4,80252
           2106           2106         61,865        -4,8023
           2107           2107         62,198       -4,80093
           2108           2108         62,531       -4,79942
           2109           2109         62,864       -4,79848
           2110           2110         63,198       -4,79768
           2111           2111         63,531       -4,79688
           2112           2112         63,864       -4,79652
           2113           2113         64,197       -4,79607
           2114           2114         64,530       -4,79571
           2115           2115         64,863       -4,79534
           2116           2116         65,196       -4,79528
           2117           2117         65,529        -4,7951
           2118           2118         65,862       -4,79492
           2119           2119         66,195       -4,79477
           2120           2120         66,528       -4,79483
           2121           2121         66,861       -4,79489
           2122           2122         67,194       -4,79486
           2123           2123         67,527       -4,79475
           2124           2124         67,860        -4,7945
           2125           2125         68,193       -4,79417
           2126           2126         68,527       -4,79387
           2127           2127         68,860       -4,79364
           2128           2128         69,193       -4,79323
           2129           2129         69,526       -4,79309
           2130           2130         69,859       -4,79302
           2131           2131         70,192       -4,79288
           2132           2132         70,525       -4,79292
           2133           2133         70,858       -4,79264
           2134           2134         71,191       -4,79228
           2135           2135         71,524       -4,79193
           2136           2136         71,857       -4,79112
           2137           2137         72,190       -4,79061
           2138           2138         72,523       -4,79016
           2139           2139         72,856       -4,78965
           2140           2140         73,189       -4,78903
           2141           2141         73,523       -4,78854
           2142           2142         73,856       -4,78805
           2143           2143         74,189        -4,7876
           2144           2144         74,522       -4,78719
           2145           2145         74,855       -4,78691
           2146           2146         75,188       -4,78683
           2147           2147         75,521       -4,78686
           2148           2148         75,854       -4,78695
           2149           2149         76,187       -4,78744
           2150           2150         76,520       -4,78771
           2151           2151         76,853       -4,78786
           2152           2152         77,186       -4,78795
           2153           2153         77,519       -4,78801
           2154           2154         77,852       -4,78809
           2155           2155         78,185       -4,78815
           2156           2156         78,518       -4,78825
           2157           2157         78,851       -4,78861
           2158           2158         79,185       -4,78905
           2159           2159         79,518       -4,78956
           2160           2160         79,851       -4,79008
           2161           2161         80,184       -4,79087
           2162           2162         80,517       -4,79148
           2163           2163         80,850         -4,792
           2164           2164         81,183       -4,79241
           2165           2165         81,516       -4,79233
           2166           2166         81,849       -4,79238
           2167           2167         82,182       -4,79237
           2168           2168         82,515       -4,79229
           2169           2169         82,848       -4,79181
           2170           2170         83,181       -4,79156
           2171           2171         83,514       -4,79131
           2172           2172         83,847       -4,79105
           2173           2173         84,180       -4,79085
           2174           2174         84,513       -4,79072
           2175           2175         84,847       -4,79067
           2176           2176         85,180       -4,79062
           2177           2177         85,513       -4,79067
           2178           2178         85,846       -4,79065
           2179           2179         86,179       -4,79065
           2180           2180         86,512       -4,79069
           2181           2181         86,845       -4,79058
           2182           2182         87,178       -4,79049
           2183           2183         87,511       -4,79045
           2184           2184         87,844       -4,79043
           2185           2185         88,177       -4,79045
           2186           2186         88,510       -4,79048
           2187           2187         88,843       -4,79054
           2188           2188         89,176       -4,79067
           2189           2189         89,509       -4,79098
           2190           2190         89,842       -4,79125
           2191           2191         90,176       -4,79151
           2192           2192         90,509       -4,79169
           2193           2193         90,842       -4,79196
           2194           2194         91,175       -4,79224
           2195           2195         91,508       -4,79251
           2196           2196         91,841       -4,79285
           2197           2197         92,174       -4,79341
           2198           2198         92,507       -4,79391
           2199           2199         92,840       -4,79442
           2200           2200         93,173       -4,79502
           2201           2201         93,506       -4,79607
           2202           2202         93,839       -4,79709
           2203           2203         94,172       -4,79815
           2204           2204         94,505       -4,79923
           2205           2205         94,838       -4,80065
           2206           2206         95,171       -4,80193
           2207           2207         95,504       -4,80312
           2208           2208         95,837       -4,80425
           2209           2209         96,170       -4,80507
           2210           2210         96,503       -4,80587
           2211           2211         96,836       -4,80663
           2212           2212         97,169       -4,80714
           2213           2213         97,502       -4,80658
           2214           2214         97,836       -4,80641
           2215           2215         98,169       -4,80626
           2216           2216         98,502       -4,80606
           2217           2217         98,835       -4,80565
           2218           2218         99,168        -4,8054
           2219           2219         99,501       -4,80524
           2220           2220         99,834       -4,80509
           2221           2221        100,167       -4,80487
           2222           2222        100,500       -4,80461
           2223           2223        100,833       -4,80436
           2224           2224        101,166        -4,8041
           2225           2225        101,499       -4,80367
           2226           2226        101,833       -4,80342
           2227           2227        102,166       -4,80321
           2228           2228        102,499       -4,80294
           2229           2229        102,832       -4,80279
           2230           2230        103,165       -4,80256
           2231           2231        103,498       -4,80235
           2232           2232        103,831       -4,80216
           2233           2233        104,164       -4,80212
           2234           2234        104,497       -4,80208
           2235           2235        104,830       -4,80193
           2236           2236        105,163       -4,80231
           2237           2237        105,496       -4,80388
           2238           2238        105,829       -4,80576
           2239           2239        106,162       -4,80819
           2240           2240        106,495       -4,81093
           2241           2241        106,828       -4,81568
           2242           2242        107,161       -4,82134
           2243           2243        107,494         -4,828
           2244           2244        107,827        -4,8349
           2245           2245        108,159       -4,84253
           2246           2246        108,492       -4,85166
           2247           2247        108,825       -4,86301
           2248           2248        109,157       -4,87597
           2249           2249        109,490       -4,89219
           2250           2250        109,822       -4,91114
           2251           2251        110,154       -4,93704
           2252           2252        110,486       -4,96773
           2253           2253        110,819       -4,99328
           2254           2254        111,151       -5,00044
           2255           2255        111,485       -4,99531
           2256           2256        111,818       -4,98708
           2257           2257        112,151       -4,97615
           2258           2258        112,485       -4,96608
           2259           2259        112,818       -4,95744
           2260           2260        113,152       -4,95014
           2261           2261        113,485       -4,94571
           2262           2262        113,818       -4,94216
           2263           2263        114,151       -4,93923
           2264           2264        114,484       -4,93708
           2265           2265        114,817       -4,93555
           2266           2266        115,151       -4,93402
           2267           2267        115,484       -4,93253
           2268           2268        115,817       -4,93131
           2269           2269        116,150       -4,93034
           2270           2270        116,483       -4,92942
           2271           2271        116,816       -4,92858
           2272           2272        117,149       -4,92884
           2273           2273        117,482       -4,92898
           2274           2274        117,815       -4,92909
           2275           2275        118,148       -4,92915
           2276           2276        118,481       -4,92932
           2277           2277        118,815       -4,92955
           2278           2278        119,148       -4,92988
           2279           2279        119,481       -4,93022
           2280           2280        119,814       -4,93058
           2281           2281        120,147       -4,93101
           2282           2282        120,480       -4,93143
           2283           2283        120,813       -4,93176
           2284           2284        121,146       -4,93209
           2285           2285        121,479       -4,93239
           2286           2286        121,812       -4,93253
           2287           2287        122,145       -4,93274
           2288           2288        122,478       -4,93297
           2289           2289        122,811       -4,93323
           2290           2290        123,144       -4,93364
           2291           2291        123,477       -4,93407
           2292           2292        123,810       -4,93453
           2293           2293        124,144         -4,935
           2294           2294        124,477        -4,9357
           2295           2295        124,810       -4,93627
           2296           2296        125,143        -4,9368
           2297           2297        125,476        -4,9373
           2298           2298        125,809       -4,93774
           2299           2299        126,142       -4,93817
           2300           2300        126,475       -4,93852
           2301           2301        126,808       -4,93882
           2302           2302        127,141       -4,93886
           2303           2303        127,474       -4,93893
           2304           2304        127,807       -4,93897
           2305           2305        128,140       -4,93898
           2306           2306        128,473        -4,9387
           2307           2307        128,806       -4,93847
           2308           2308        129,140       -4,93819
           2309           2309        129,473       -4,93783
           2310           2310        129,806       -4,93742
           2311           2311        130,139       -4,93714
           2312           2312        130,472       -4,93693
           2313           2313        130,805       -4,93676
           2314           2314        131,138        -4,9369
           2315           2315        131,471       -4,93704
           2316           2316        131,804       -4,93729
           2317           2317        132,137       -4,93763
           2318           2318        132,470       -4,93818
           2319           2319        132,803       -4,93854
           2320           2320        133,136       -4,93881
           2321           2321        133,470         -4,939
           2322           2322        133,803       -4,93907
           2323           2323        134,136       -4,93909
           2324           2324        134,469         -4,939
           2325           2325        134,802       -4,93886
           2326           2326        135,135       -4,93831
           2327           2327        135,468        -4,9377
           2328           2328        135,801       -4,93704
           2329           2329        136,134       -4,93639
           2330           2330        136,467       -4,93545
           2331           2331        136,800        -4,9348
           2332           2332        137,134       -4,93427
           2333           2333        137,467       -4,93378
           2334           2334        137,800       -4,93353
           2335           2335        138,133       -4,93324
           2336           2336        138,466       -4,93298
           2337           2337        138,799       -4,93272
           2338           2338        139,132       -4,93261
           2339           2339        139,465       -4,93261
           2340           2340        139,798        -4,9327
           2341           2341        140,131       -4,93287
           2342           2342        140,464       -4,93328
           2343           2343        140,798       -4,93362
           2344           2344        141,131       -4,93401
           2345           2345        141,464       -4,93443
           2346           2346        141,797        -4,9351
           2347           2347        142,130       -4,93572
           2348           2348        142,463       -4,93635
           2349           2349        142,796       -4,93705
           2350           2350        143,129       -4,93798
           2351           2351        143,462        -4,9389
           2352           2352        143,795       -4,93988
           2353           2353        144,128       -4,94083
           2354           2354        144,461       -4,94196
           2355           2355        144,794       -4,94309
           2356           2356        145,127       -4,94421
           2357           2357        145,460       -4,94534
           2358           2358        145,793       -4,94651
           2359           2359        146,126        -4,9476
           2360           2360        146,459       -4,94866
           2361           2361        146,792       -4,94969
           2362           2362        147,125       -4,95069
           2363           2363        147,458       -4,95175
           2364           2364        147,791       -4,95285
           2365           2365        148,125       -4,95393
           2366           2366        148,458       -4,95491
           2367           2367        148,791       -4,95579
           2368           2368        149,124       -4,95659
           2369           2369        149,457       -4,95739
           2370           2370        149,790        -4,9578
           2371           2371        150,123       -4,95834
           2372           2372        150,456       -4,95892
           2373           2373        150,789       -4,95951
           2374           2374        151,122       -4,95988
           2375           2375        151,455       -4,96031
           2376           2376        151,788       -4,96069
           2377           2377        152,121       -4,96104
           2378           2378        152,454        -4,9613
           2379           2379        152,787       -4,96163
           2380           2380        153,120       -4,96207
           2381           2381        153,454       -4,96255
           2382           2382        153,787       -4,96307
           2383           2383        154,120        -4,9636
           2384           2384        154,453        -4,9642
           2385           2385        154,786       -4,96484
           2386           2386        155,119       -4,96557
           2387           2387        155,452       -4,96626
           2388           2388        155,785       -4,96698
           2389           2389        156,118       -4,96777
           2390           2390        156,451       -4,96851
           2391           2391        156,784       -4,96922
           2392           2392        157,117        -4,9699
           2393           2393        157,450        -4,9706
           2394           2394        157,783       -4,97124
           2395           2395        158,116       -4,97192
           2396           2396        158,449       -4,97257
           2397           2397        158,782        -4,9732
           2398           2398        159,116       -4,97385
           2399           2399        159,449       -4,97449
           2400           2400        159,782       -4,97519
           2401           2401        160,115       -4,97594
           2402           2402        160,448       -4,97688
           2403           2403        160,781       -4,97791
           2404           2404        161,114       -4,97903
           2405           2405        161,447       -4,98016
           2406           2406        161,780       -4,98171
           2407           2407        162,113       -4,98312
           2408           2408        162,446       -4,98451
           2409           2409        162,779        -4,9859
           2410           2410        163,112        -4,9872
           2411           2411        163,445       -4,98846
           2412           2412        163,778       -4,98973
           2413           2413        164,111       -4,99101
           2414           2414        164,444        -4,9921
           2415           2415        164,777       -4,99324
           2416           2416        165,110       -4,99434
           2417           2417        165,443       -4,99538
           2418           2418        165,776       -4,99627
           2419           2419        166,109       -4,99714
           2420           2420        166,442         -4,998
           2421           2421        166,776       -4,99886
           2422           2422        167,109       -4,99959
           2423           2423        167,442       -5,00039
           2424           2424        167,775       -5,00116
           2425           2425        168,108       -5,00194
           2426           2426        168,441       -5,00274
           2427           2427        168,774       -5,00349
           2428           2428        169,107       -5,00427
           2429           2429        169,440       -5,00507
           2430           2430        169,773       -5,00592
           2431           2431        170,106        -5,0068
           2432           2432        170,439        -5,0077
           2433           2433        170,772       -5,00861
           2434           2434        171,105       -5,00959
           2435           2435        171,438       -5,01046
           2436           2436        171,771       -5,01127
           2437           2437        172,104       -5,01208
           2438           2438        172,438       -5,01273
           2439           2439        172,771       -5,01351
           2440           2440        173,104        -5,0143
           2441           2441        173,437       -5,01508
           2442           2442        173,770       -5,01604
           2443           2443        174,103       -5,01699
           2444           2444        174,436       -5,01795
           2445           2445        174,769       -5,01893
           2446           2446        175,102       -5,01977
           2447           2447        175,435       -5,02045
           2448           2448        175,768       -5,02114
           2449           2449        176,101       -5,02163
           2450           2450        176,434       -5,02201
           2451           2451        176,767       -5,02228
           2452           2452        177,100       -5,02266
           2453           2453        177,433       -5,02405
           2454           2454        177,766        -5,0264
           2455           2455        178,099        -5,0281
           2456           2456        178,432       -5,02976
           2457           2457        178,765       -5,03147
           2458           2458        179,098       -5,03296
           2459           2459        179,432        -5,0344
           2460           2460        179,765        -5,0358
           2461           2461        180,098       -5,03715
           2462           2462        180,431       -5,03833
           2463           2463        180,764       -5,03972
           2464           2464        181,097       -5,04124
           2465           2465        181,430       -5,04283
           2466           2466        181,763       -5,04473
           2467           2467        182,096       -5,04651
           2468           2468        182,429       -5,04823
           2469           2469        182,762        -5,0499
           2470           2470        183,095       -5,05166
           2471           2471        183,428       -5,05333
           2472           2472        183,761       -5,05501
           2473           2473        184,094       -5,05679
           2474           2474        184,427       -5,05872
           2475           2475        184,760       -5,06065
           2476           2476        185,093       -5,06251
           2477           2477        185,426       -5,06433
           2478           2478        185,759       -5,06632
           2479           2479        186,092       -5,06801
           2480           2480        186,425       -5,06957
           2481           2481        186,758       -5,07103
           2482           2482        187,091         -5,072
           2483           2483        187,424       -5,07318
           2484           2484        187,757        -5,0744
           2485           2485        188,090       -5,07564
           2486           2486        188,423       -5,07688
           2487           2487        188,756       -5,07825
           2488           2488        189,089        -5,0797
           2489           2489        189,422        -5,0812
           2490           2490        189,755       -5,08303
           2491           2491        190,088       -5,08478
           2492           2492        190,421       -5,08652
           2493           2493        190,754       -5,08828
           2494           2494        191,087       -5,09027
           2495           2495        191,420       -5,09223
           2496           2496        191,753        -5,0942
           2497           2497        192,086       -5,09619
           2498           2498        192,419       -5,09818
           2499           2499        192,752       -5,10019
           2500           2500        193,085       -5,10227
           2501           2501        193,418       -5,10446
           2502           2502        193,751        -5,1067
           2503           2503        194,084       -5,10897
           2504           2504        194,417       -5,11122
           2505           2505        194,750       -5,11343
           2506           2506        195,083       -5,11563
           2507           2507        195,416       -5,11788
           2508           2508        195,749       -5,12014
           2509           2509        196,082       -5,12236
           2510           2510        196,415       -5,12451
           2511           2511        196,748       -5,12657
           2512           2512        197,081       -5,12857
           2513           2513        197,414       -5,13056
           2514           2514        197,747        -5,1326
           2515           2515        198,080       -5,13473
           2516           2516        198,413        -5,1368
           2517           2517        198,746       -5,13864
           2518           2518        199,079       -5,14038
           2519           2519        199,412       -5,14242
           2520           2520        199,745       -5,14486


Results:
  Step	-47,98e-03 Wg^-1
  	-0,35 mW
  Onset	-51,58 °C
  Inflect. Pt.	-46,71 °C
  Midpoint	-47,92 °C
  Angle Midpoint	-47,34 °C

  Integral	-421,04 mJ
    normalized	-58,48 Jg^-1
  Onset	-3,14 °C
  Peak	12,06 °C

  Integral	-100,61 mJ
    normalized	-13,97 Jg^-1
  Onset	32,03 °C
  Peak	39,47 °C

  Step	-68,91e-03 Wg^-1
  	-0,50 mW
  Onset	107,35 °C
  Inflect. Pt.	108,80 °C
  Midpoint	108,11 °C
  Angle Midpoint	108,43 °C

  Integral	591,63 mJ
    normalized	82,17 Jg^-1
  Onset	7,15 °C
  Peak	-1,42 °C

  Step	-30,98e-03 Wg^-1
  	-0,22 mW
  Onset	-45,94 °C
  Inflect. Pt.	-43,04 °C
  Midpoint	-43,33 °C
  Angle Midpoint	-44,06 °C

  Integral	-391,72 mJ
    normalized	-54,41 Jg^-1
  Onset	-1,41 °C
  Peak	12,75 °C

  Integral	-21,37 mJ
    normalized	-2,97 Jg^-1
  Onset	35,58 °C
  Peak	42,18 °C

  Step	-16,77e-03 Wg^-1
  	-0,12 mW
  Onset	107,99 °C
  Inflect. Pt.	109,82 °C
  Midpoint	108,92 °C
  Angle Midpoint	108,70 °C

Sample:
  Grazia_DSC_GR 08, 7,2000 mg


________________________________________________________________________________
Not signed                                                        STARe SW 16.40