Grazia_DSC_GR018                                                18.11.2022 16:24
________________________________________________________________________________



Curve Name:
  Grazia_DSC_GR018, 18.11.2022 16:15:13
  Performed 18.11.2022 16:15:13
Curve Values:
          Index              t             Ts          Value
                           [s]           [°C]           [mW]
              0              0        -79,994         1,1387
              1              1        -79,660        1,19049
              2              2        -79,325        1,58567
              3              3        -78,987        2,25482
              4              4        -78,651        2,81231
              5              5        -78,317        2,95509
              6              6        -77,985        2,63705
              7              7        -77,655         2,0604
              8              8        -77,326        1,18905
              9              9        -76,998       0,322554
             10             10        -76,670      -0,488426
             11             11        -76,341       -1,24182
             12             12        -76,011       -1,84853
             13             13        -75,681       -2,37896
             14             14        -75,351       -2,83547
             15             15        -75,020       -3,24129
             16             16        -74,689       -3,56882
             17             17        -74,357       -3,85282
             18             18        -74,026       -4,09929
             19             19        -73,694       -4,32728
             20             20        -73,362       -4,50242
             21             21        -73,030       -4,66509
             22             22        -72,698       -4,80934
             23             23        -72,365       -4,94499
             24             24        -72,033       -5,05095
             25             25        -71,700       -5,15205
             26             26        -71,368       -5,23866
             27             27        -71,035       -5,31379
             28             28        -70,703       -5,38077
             29             29        -70,370       -5,43862
             30             30        -70,037       -5,48839
             31             31        -69,704       -5,53634
             32             32        -69,372       -5,57544
             33             33        -69,039       -5,61002
             34             34        -68,706         -5,642
             35             35        -68,373       -5,67117
             36             36        -68,040       -5,69055
             37             37        -67,707       -5,70874
             38             38        -67,374       -5,72546
             39             39        -67,041       -5,74136
             40             40        -66,708       -5,75073
             41             41        -66,375       -5,75823
             42             42        -66,042       -5,76147
             43             43        -65,709       -5,76187
             44             44        -65,376       -5,76322
             45             45        -65,043        -5,7623
             46             46        -64,710       -5,76368
             47             47        -64,377       -5,76498
             48             48        -64,044       -5,76048
             49             49        -63,711       -5,75659
             50             50        -63,377       -5,75239
             51             51        -63,044        -5,7459
             52             52        -62,711       -5,74032
             53             53        -62,378        -5,7348
             54             54        -62,045       -5,72819
             55             55        -61,712       -5,71847
             56             56        -61,379       -5,70772
             57             57        -61,046       -5,69764
             58             58        -60,712       -5,68877
             59             59        -60,379       -5,68042
             60             60        -60,046       -5,66761
             61             61        -59,713       -5,65451
             62             62        -59,380       -5,64165
             63             63        -59,047       -5,62912
             64             64        -58,713       -5,61835
             65             65        -58,380       -5,60733
             66             66        -58,047       -5,59605
             67             67        -57,714       -5,58254
             68             68        -57,381       -5,57557
             69             69        -57,048       -5,56393
             70             70        -56,714       -5,55229
             71             71        -56,381       -5,53836
             72             72        -56,048       -5,52405
             73             73        -55,715       -5,51127
             74             74        -55,382       -5,50019
             75             75        -55,049       -5,48964
             76             76        -54,715       -5,48035
             77             77        -54,382       -5,47133
             78             78        -54,049        -5,4639
             79             79        -53,716       -5,45767
             80             80        -53,383       -5,44775
             81             81        -53,050       -5,43882
             82             82        -52,716       -5,43097
             83             83        -52,383       -5,42346
             84             84        -52,050       -5,41416
             85             85        -51,717       -5,40479
             86             86        -51,384       -5,39947
             87             87        -51,051       -5,39137
             88             88        -50,718       -5,38386
             89             89        -50,384       -5,37671
             90             90        -50,051       -5,37033
             91             91        -49,718       -5,36452
             92             92        -49,385       -5,35896
             93             93        -49,052       -5,35296
             94             94        -48,719       -5,34725
             95             95        -48,386       -5,34197
             96             96        -48,053       -5,33467
             97             97        -47,719       -5,32933
             98             98        -47,386       -5,32671
             99             99        -47,053       -5,32149
            100            100        -46,720       -5,31667
            101            101        -46,387       -5,31441
            102            102        -46,054        -5,3115
            103            103        -45,721       -5,30629
            104            104        -45,388       -5,30088
            105            105        -45,055       -5,29642
            106            106        -44,721       -5,29188
            107            107        -44,388       -5,28746
            108            108        -44,055       -5,28386
            109            109        -43,722          -5,28
            110            110        -43,389       -5,27613
            111            111        -43,056       -5,27248
            112            112        -42,723       -5,26912
            113            113        -42,390       -5,26452
            114            114        -42,056       -5,25871
            115            115        -41,723       -5,25535
            116            116        -41,390       -5,25303
            117            117        -41,057       -5,25031
            118            118        -40,724       -5,24584
            119            119        -40,391       -5,23872
            120            120        -40,058        -5,2358
            121            121        -39,725       -5,23288
            122            122        -39,392       -5,23005
            123            123        -39,059       -5,22726
            124            124        -38,725       -5,22461
            125            125        -38,392       -5,22197
            126            126        -38,059       -5,21927
            127            127        -37,726       -5,21645
            128            128        -37,393       -5,21403
            129            129        -37,060       -5,21147
            130            130        -36,727       -5,20838
            131            131        -36,394       -5,20421
            132            132        -36,061       -5,20467
            133            133        -35,728       -5,20413
            134            134        -35,394       -5,20312
            135            135        -35,061       -5,20163
            136            136        -34,728       -5,19935
            137            137        -34,395       -5,19769
            138            138        -34,062       -5,19586
            139            139        -33,729       -5,19335
            140            140        -33,396       -5,19271
            141            141        -33,063       -5,19211
            142            142        -32,730       -5,19167
            143            143        -32,397       -5,19144
            144            144        -32,064       -5,19143
            145            145        -31,731       -5,19139
            146            146        -31,398       -5,19131
            147            147        -31,065       -5,19127
            148            148        -30,731       -5,19134
            149            149        -30,398       -5,19141
            150            150        -30,065       -5,19139
            151            151        -29,732       -5,19128
            152            152        -29,399       -5,19227
            153            153        -29,066       -5,19365
            154            154        -28,733       -5,19494
            155            155        -28,400       -5,19405
            156            156        -28,067        -5,1948
            157            157        -27,734       -5,19536
            158            158        -27,401       -5,19618
            159            159        -27,068       -5,19777
            160            160        -26,735       -5,19936
            161            161        -26,402       -5,20094
            162            162        -26,069       -5,20195
            163            163        -25,736       -5,20194
            164            164        -25,403       -5,20126
            165            165        -25,070       -5,20098
            166            166        -24,737       -5,20064
            167            167        -24,403       -5,20028
            168            168        -24,070       -5,19982
            169            169        -23,737       -5,19881
            170            170        -23,404       -5,19672
            171            171        -23,071       -5,19475
            172            172        -22,738        -5,1921
            173            173        -22,405       -5,18931
            174            174        -22,072        -5,1865
            175            175        -21,739        -5,1836
            176            176        -21,406       -5,18036
            177            177        -21,073       -5,17727
            178            178        -20,740       -5,17398
            179            179        -20,406       -5,17018
            180            180        -20,073       -5,16284
            181            181        -19,740       -5,15665
            182            182        -19,407       -5,15155
            183            183        -19,074       -5,14654
            184            184        -18,741       -5,14184
            185            185        -18,408       -5,13702
            186            186        -18,075       -5,13232
            187            187        -17,741       -5,12768
            188            188        -17,408       -5,12346
            189            189        -17,075       -5,11914
            190            190        -16,742       -5,11489
            191            191        -16,409        -5,1107
            192            192        -16,076       -5,10708
            193            193        -15,743       -5,10338
            194            194        -15,410       -5,09957
            195            195        -15,077       -5,09578
            196            196        -14,743       -5,09333
            197            197        -14,410       -5,09036
            198            198        -14,077       -5,08731
            199            199        -13,744       -5,08429
            200            200        -13,411       -5,08145
            201            201        -13,078       -5,07866
            202            202        -12,745       -5,07619
            203            203        -12,412       -5,07385
            204            204        -12,079       -5,07244
            205            205        -11,746       -5,07042
            206            206        -11,413       -5,06843
            207            207        -11,079       -5,06651
            208            208        -10,746       -5,06462
            209            209        -10,413       -5,06238
            210            210        -10,080       -5,06059
            211            211         -9,747       -5,05985
            212            212         -9,414       -5,05943
            213            213         -9,081       -5,05852
            214            214         -8,748       -5,05755
            215            215         -8,415       -5,05663
            216            216         -8,082       -5,05563
            217            217         -7,749       -5,05463
            218            218         -7,416       -5,05365
            219            219         -7,083       -5,05256
            220            220         -6,750       -5,05116
            221            221         -6,417       -5,04973
            222            222         -6,083        -5,0483
            223            223         -5,750       -5,04686
            224            224         -5,417       -5,04522
            225            225         -5,084       -5,04356
            226            226         -4,751       -5,04179
            227            227         -4,418       -5,03999
            228            228         -4,085       -5,03815
            229            229         -3,752       -5,03634
            230            230         -3,419        -5,0342
            231            231         -3,086       -5,03141
            232            232         -2,753       -5,02827
            233            233         -2,420       -5,02526
            234            234         -2,086       -5,02219
            235            235         -1,753       -5,01908
            236            236         -1,420        -5,0158
            237            237         -1,087       -5,01269
            238            238         -0,754       -5,00962
            239            239         -0,421       -5,00656
            240            240    -87,819e-03       -5,00392
            241            241          0,245       -5,00121
            242            242          0,578       -4,99892
            243            243          0,911       -4,99695
            244            244          1,245        -4,9951
            245            245          1,578       -4,99317
            246            246          1,911       -4,99132
            247            247          2,244       -4,98956
            248            248          2,577       -4,98799
            249            249          2,910       -4,98653
            250            250          3,243       -4,98518
            251            251          3,576       -4,98395
            252            252          3,909       -4,98327
            253            253          4,242       -4,98249
            254            254          4,575       -4,98183
            255            255          4,908       -4,98134
            256            256          5,241       -4,98116
            257            257          5,574       -4,98127
            258            258          5,908       -4,98157
            259            259          6,241       -4,98188
            260            260          6,574       -4,98263
            261            261          6,907       -4,98332
            262            262          7,240       -4,98412
            263            263          7,573       -4,98494
            264            264          7,906       -4,98603
            265            265          8,239       -4,98702
            266            266          8,572       -4,98811
            267            267          8,905       -4,98924
            268            268          9,238       -4,99058
            269            269          9,571        -4,9919
            270            270          9,904       -4,99323
            271            271         10,237       -4,99465
            272            272         10,570       -4,99629
            273            273         10,903       -4,99788
            274            274         11,236       -4,99945
            275            275         11,569       -5,00117
            276            276         11,902       -5,00307
            277            277         12,235       -5,00489
            278            278         12,568       -5,00667
            279            279         12,901       -5,00849
            280            280         13,234       -5,01031
            281            281         13,567       -5,01189
            282            282         13,900       -5,01342
            283            283         14,233       -5,01497
            284            284         14,566       -5,01632
            285            285         14,899       -5,01784
            286            286         15,232       -5,01942
            287            287         15,565       -5,02102
            288            288         15,898       -5,02267
            289            289         16,231       -5,02429
            290            290         16,564       -5,02587
            291            291         16,897       -5,02749
            292            292         17,230       -5,02944
            293            293         17,563       -5,03131
            294            294         17,896       -5,03319
            295            295         18,229       -5,03506
            296            296         18,562       -5,03724
            297            297         18,895       -5,03927
            298            298         19,228        -5,0413
            299            299         19,561       -5,04337
            300            300         19,894       -5,04541
            301            301         20,227       -5,04761
            302            302         20,560          -5,05
            303            303         20,893       -5,05247
            304            304         21,226       -5,05516
            305            305         21,559       -5,05778
            306            306         21,892       -5,06039
            307            307         22,225       -5,06306
            308            308         22,558        -5,0658
            309            309         22,891       -5,06851
            310            310         23,224       -5,07121
            311            311         23,557       -5,07384
            312            312         23,890       -5,07673
            313            313         24,223       -5,07966
            314            314         24,556        -5,0825
            315            315         24,889       -5,08519
            316            316         25,222       -5,08817
            317            317         25,555       -5,09118
            318            318         25,888       -5,09393
            319            319         26,221       -5,09608
            320            320         26,554       -5,10032
            321            321         26,887       -5,10389
            322            322         27,220       -5,10737
            323            323         27,553       -5,11093
            324            324         27,886       -5,11484
            325            325         28,219       -5,11859
            326            326         28,552        -5,1224
            327            327         28,885        -5,1263
            328            328         29,218       -5,13056
            329            329         29,551       -5,13477
            330            330         29,884       -5,13909
            331            331         30,217       -5,14378
            332            332         30,550       -5,14869
            333            333         30,883        -5,1534
            334            334         31,215       -5,15806
            335            335         31,548       -5,16281
            336            336         31,881        -5,1678
            337            337         32,214       -5,17282
            338            338         32,547       -5,17788
            339            339         32,880       -5,18296
            340            340         33,213       -5,18853
            341            341         33,546       -5,19405
            342            342         33,879       -5,19958
            343            343         34,212       -5,20515
            344            344         34,545       -5,21123
            345            345         34,878       -5,21727
            346            346         35,210       -5,22325
            347            347         35,543       -5,22935
            348            348         35,876       -5,23673
            349            349         36,209       -5,24367
            350            350         36,542        -5,2506
            351            351         36,875        -5,2577
            352            352         37,208       -5,26498
            353            353         37,541       -5,27212
            354            354         37,873       -5,27937
            355            355         38,206       -5,28674
            356            356         38,539       -5,29434
            357            357         38,872       -5,30199
            358            358         39,205       -5,30969
            359            359         39,538       -5,31745
            360            360         39,870       -5,32561
            361            361         40,203       -5,33365
            362            362         40,536       -5,34177
            363            363         40,869       -5,34999
            364            364         41,202        -5,3582
            365            365         41,535       -5,36652
            366            366         41,867        -5,3749
            367            367         42,200       -5,38323
            368            368         42,533       -5,39186
            369            369         42,866       -5,40057
            370            370         43,199       -5,40939
            371            371         43,532       -5,41827
            372            372         43,864       -5,42759
            373            373         44,197       -5,43691
            374            374         44,530       -5,44641
            375            375         44,863       -5,45602
            376            376         45,195       -5,46625
            377            377         45,528        -5,4764
            378            378         45,861       -5,48667
            379            379         46,194       -5,49705
            380            380         46,526       -5,50775
            381            381         46,859       -5,51818
            382            382         47,192       -5,52853
            383            383         47,525       -5,53882
            384            384         47,858       -5,54867
            385            385         48,190       -5,55861
            386            386         48,523       -5,56833
            387            387         48,856       -5,57806
            388            388         49,189       -5,58634
            389            389         49,521       -5,59444
            390            390         49,854       -5,60206
            391            391         50,187       -5,60925
            392            392         50,520       -5,61555
            393            393         50,853       -5,62069
            394            394         51,186       -5,62484
            395            395         51,519        -5,6291
            396            396         51,852       -5,63249
            397            397         52,184       -5,63615
            398            398         52,517       -5,63927
            399            399         52,850       -5,64204
            400            400         53,183       -5,64432
            401            401         53,516       -5,64692
            402            402         53,849       -5,64913
            403            403         54,182       -5,65066
            404            404         54,515       -5,65159
            405            405         54,848       -5,65274
            406            406         55,181       -5,65378
            407            407         55,514        -5,6547
            408            408         55,847       -5,65513
            409            409         56,180       -5,65579
            410            410         56,513       -5,65644
            411            411         56,846       -5,65699
            412            412         57,179       -5,65731
            413            413         57,512       -5,65777
            414            414         57,845       -5,65831
            415            415         58,178        -5,6589
            416            416         58,511       -5,65941
            417            417         58,844       -5,65989
            418            418         59,177       -5,66033
            419            419         59,510       -5,66074
            420            420         59,843       -5,66118
            421            421         60,176       -5,66165
            422            422         60,509       -5,66213
            423            423         60,842       -5,66259
            424            424         61,175       -5,66315
            425            425         61,508       -5,66375
            426            426         61,841       -5,66438
            427            427         62,174       -5,66494
            428            428         62,507       -5,66571
            429            429         62,840       -5,66645
            430            430         63,173       -5,66728
            431            431         63,506       -5,66818
            432            432         63,839       -5,66918
            433            433         64,172       -5,67026
            434            434         64,505       -5,67151
            435            435         64,838       -5,67283
            436            436         65,171        -5,6745
            437            437         65,504       -5,67613
            438            438         65,837       -5,67776
            439            439         66,170       -5,67941
            440            440         66,503        -5,6814
            441            441         66,836       -5,68333
            442            442         67,168       -5,68528
            443            443         67,501       -5,68724
            444            444         67,834       -5,68944
            445            445         68,167       -5,69169
            446            446         68,500       -5,69405
            447            447         68,833       -5,69649
            448            448         69,166       -5,69919
            449            449         69,499       -5,70187
            450            450         69,832       -5,70468
            451            451         70,165       -5,70756
            452            452         70,498       -5,71068
            453            453         70,831       -5,71378
            454            454         71,164         -5,717
            455            455         71,496       -5,72035
            456            456         71,829       -5,72417
            457            457         72,162       -5,72791
            458            458         72,495        -5,7317
            459            459         72,828       -5,73553
            460            460         73,161       -5,73986
            461            461         73,494       -5,74405
            462            462         73,827       -5,74822
            463            463         74,160        -5,7524
            464            464         74,492       -5,75675
            465            465         74,825       -5,76105
            466            466         75,158        -5,7654
            467            467         75,491       -5,76982
            468            468         75,824       -5,77432
            469            469         76,157       -5,77875
            470            470         76,490       -5,78312
            471            471         76,822        -5,7874
            472            472         77,155       -5,79168
            473            473         77,488       -5,79593
            474            474         77,821       -5,80022
            475            475         78,154       -5,80458
            476            476         78,487        -5,8088
            477            477         78,820       -5,81305
            478            478         79,153       -5,81728
            479            479         79,485       -5,82146
            480            480         79,818       -5,82545
            481            481         80,151       -5,82939
            482            482         80,484       -5,83324
            483            483         80,817       -5,83694
            484            484         81,150       -5,84014
            485            485         81,483       -5,84362
            486            486         81,816       -5,84707
            487            487         82,149       -5,85037
            488            488         82,481        -5,8534
            489            489         82,814        -5,8565
            490            490         83,147       -5,85968
            491            491         83,480       -5,86292
            492            492         83,813       -5,86467
            493            493         84,146       -5,86635
            494            494         84,479       -5,86833
            495            495         84,812       -5,87026
            496            496         85,145       -5,87177
            497            497         85,478       -5,87333
            498            498         85,811       -5,87485
            499            499         86,144       -5,87636
            500            500         86,477       -5,87764
            501            501         86,810       -5,87897
            502            502         87,143       -5,88037
            503            503         87,476       -5,88181
            504            504         87,809       -5,88325
            505            505         88,141       -5,88474
            506            506         88,474       -5,88626
            507            507         88,807       -5,88772
            508            508         89,140       -5,88948
            509            509         89,473       -5,89117
            510            510         89,806       -5,89279
            511            511         90,139        -5,8944
            512            512         90,472       -5,89607
            513            513         90,805        -5,8977
            514            514         91,138       -5,89935
            515            515         91,471       -5,90102
            516            516         91,804       -5,90248
            517            517         92,137       -5,90408
            518            518         92,470       -5,90579
            519            519         92,803       -5,90757
            520            520         93,136       -5,90947
            521            521         93,469       -5,91141
            522            522         93,802       -5,91344
            523            523         94,135       -5,91554
            524            524         94,467       -5,91794
            525            525         94,800       -5,92033
            526            526         95,133       -5,92277
            527            527         95,466       -5,92526
            528            528         95,799       -5,92787
            529            529         96,132       -5,93042
            530            530         96,465       -5,93296
            531            531         96,798       -5,93549
            532            532         97,131       -5,93828
            533            533         97,464       -5,94122
            534            534         97,797       -5,94424
            535            535         98,130       -5,94731
            536            536         98,462       -5,95089
            537            537         98,795        -5,9543
            538            538         99,128       -5,95775
            539            539         99,461       -5,96127
            540            540         99,794       -5,96497
            541            541        100,127       -5,96878
            542            542        100,460       -5,97275
            543            543        100,793       -5,97681
            544            544        101,125       -5,98117
            545            545        101,458       -5,98544
            546            546        101,791       -5,98979
            547            547        102,124       -5,99419
            548            548        102,457       -5,99888
            549            549        102,790       -6,00348
            550            550        103,123       -6,00807
            551            551        103,455       -6,01267
            552            552        103,788        -6,0175
            553            553        104,121       -6,02241
            554            554        104,454       -6,02739
            555            555        104,787        -6,0323
            556            556        105,119       -6,03813
            557            557        105,452       -6,04375
            558            558        105,785       -6,04941
            559            559        106,118        -6,0552
            560            560        106,451       -6,06162
            561            561        106,783       -6,06792
            562            562        107,116       -6,07428
            563            563        107,449        -6,0807
            564            564        107,782       -6,08754
            565            565        108,115       -6,09422
            566            566        108,447       -6,10089
            567            567        108,780       -6,10765
            568            568        109,113       -6,11449
            569            569        109,446       -6,12132
            570            570        109,778       -6,12822
            571            571        110,111       -6,13512
            572            572        110,444       -6,14233
            573            573        110,777        -6,1496
            574            574        111,109       -6,15693
            575            575        111,442       -6,16432
            576            576        111,775       -6,17205
            577            577        112,107       -6,17971
            578            578        112,440       -6,18751
            579            579        112,773        -6,1954
            580            580        113,106       -6,20361
            581            581        113,438       -6,21182
            582            582        113,771       -6,22021
            583            583        114,104       -6,22914
            584            584        114,436       -6,23835
            585            585        114,769       -6,24751
            586            586        115,102       -6,25677
            587            587        115,434       -6,26615
            588            588        115,767       -6,27602
            589            589        116,100       -6,28588
            590            590        116,432       -6,29595
            591            591        116,765       -6,30622
            592            592        117,097       -6,31687
            593            593        117,430       -6,32771
            594            594        117,763       -6,33874
            595            595        118,095       -6,34974
            596            596        118,428       -6,36106
            597            597        118,760       -6,37223
            598            598        119,093       -6,38334
            599            599        119,425       -6,39444
            600            600        119,758       -6,40559
            601            601        120,091       -6,41686
            602            602        120,423       -6,42825
            603            603        120,756       -6,43955
            604            604        121,088       -6,45156
            605            605        121,421       -6,46356
            606            606        121,753       -6,47631
            607            607        122,086       -6,48969
            608            608        122,418        -6,5037
            609            609        122,751       -6,51772
            610            610        123,083       -6,53171
            611            611        123,416       -6,54606
            612            612        123,748       -6,56083
            613            613        124,080       -6,57602
            614            614        124,413       -6,59269
            615            615        124,745       -6,61032
            616            616        125,077       -6,62864
            617            617        125,410       -6,64723
            618            618        125,742       -6,66693
            619            619        126,074       -6,68727
            620            620        126,406       -6,70779
            621            621        126,738       -6,72827
            622            622        127,071       -6,74892
            623            623        127,403        -6,7708
            624            624        127,735       -6,79362
            625            625        128,067       -6,81758
            626            626        128,399       -6,84301
            627            627        128,731       -6,86941
            628            628        129,063       -6,89814
            629            629        129,394       -6,92794
            630            630        129,726       -6,95923
            631            631        130,058       -6,99153
            632            632        130,389       -7,02654
            633            633        130,721       -7,06319
            634            634        131,052        -7,1019
            635            635        131,384       -7,14188
            636            636        131,715       -7,18841
            637            637        132,046       -7,23611
            638            638        132,377       -7,28563
            639            639        132,708       -7,33639
            640            640        133,039       -7,39078
            641            641        133,369       -7,44687
            642            642        133,700        -7,5053
            643            643        134,031        -7,5652
            644            644        134,361       -7,62859
            645            645        134,691       -7,69332
            646            646        135,022       -7,76005
            647            647        135,352       -7,82816
            648            648        135,682       -7,89758
            649            649        136,012       -7,96735
            650            650        136,342       -8,03897
            651            651        136,672       -8,11193
            652            652        137,002       -8,18805
            653            653        137,332       -8,26493
            654            654        137,661       -8,34203
            655            655        137,991       -8,41918
            656            656        138,321       -8,49707
            657            657        138,651       -8,57477
            658            658        138,980       -8,65321
            659            659        139,310        -8,7328
            660            660        139,640       -8,81531
            661            661        139,969       -8,89925
            662            662        140,298       -8,98549
            663            663        140,628       -9,07341
            664            664        140,957       -9,16612
            665            665        141,285       -9,26534
            666            666        141,614       -9,37334
            667            667        141,942       -9,48753
            668            668        142,270       -9,61525
            669            669        142,597       -9,74806
            670            670        142,924       -9,87696
            671            671        143,252       -9,99637
            672            672        143,581       -10,0931
            673            673        143,911       -10,1747
            674            674        144,241       -10,2327
            675            675        144,572       -10,2704
            676            676        144,907       -10,2331
            677            677        145,243       -10,1541
            678            678        145,581        -10,033
            679            679        145,920       -9,88702
            680            680        146,260       -9,70685
            681            681        146,601       -9,51832
            682            682        146,942       -9,32035
            683            683        147,283        -9,1162
            684            684        147,625       -8,89674
            685            685        147,968       -8,67099
            686            686        148,310       -8,44306
            687            687        148,653       -8,21467
            688            688        148,995       -7,98934
            689            689        149,338       -7,77068
            690            690        149,679       -7,56145
            691            691        150,021       -7,36063
            692            692        150,361       -7,18577
            693            693        150,701       -7,02563
            694            694        151,040       -6,88234
            695            695        151,379       -6,75047
            696            696        151,716       -6,64357
            697            697        152,053       -6,54787
            698            698        152,390       -6,46442
            699            699        152,726       -6,38762
            700            700        153,062       -6,32753
            701            701        153,397       -6,27489
            702            702        153,732       -6,22849
            703            703        154,067       -6,18639
            704            704        154,402       -6,15204
            705            705        154,736       -6,12123
            706            706        155,070       -6,09493
            707            707        155,404       -6,07225
            708            708        155,738        -6,0537
            709            709        156,072       -6,03662
            710            710        156,405       -6,02161
            711            711        156,739       -6,00798
            712            712        157,073       -5,99688
            713            713        157,406       -5,98659
            714            714        157,739       -5,97764
            715            715        158,073       -5,96978
            716            716        158,406       -5,96459
            717            717        158,739       -5,95934
            718            718        159,073       -5,95411
            719            719        159,406       -5,94898
            720            720        159,739       -5,94514
            721            721        160,072       -5,94162
            722            722        160,405       -5,93868
            723            723        160,739        -5,9358
            724            724        161,072       -5,93406
            725            725        161,405       -5,93192
            726            726        161,738       -5,92989
            727            727        162,071       -5,92796
            728            728        162,404       -5,92671
            729            729        162,737       -5,92532
            730            730        163,070       -5,92405
            731            731        163,404       -5,92327
            732            732        163,737       -5,92289
            733            733        164,070       -5,92224
            734            734        164,403        -5,9216
            735            735        164,736       -5,92097
            736            736        165,069        -5,9204
            737            737        165,402        -5,9197
            738            738        165,735        -5,9189
            739            739        166,068       -5,91807
            740            740        166,401       -5,91699
            741            741        166,734       -5,91604
            742            742        167,067       -5,91512
            743            743        167,401       -5,91421
            744            744        167,734       -5,91326
            745            745        168,067       -5,91226
            746            746        168,400       -5,91118
            747            747        168,733       -5,91006
            748            748        169,066       -5,90895
            749            749        169,399       -5,90794
            750            750        169,732       -5,90705
            751            751        170,065       -5,90626
            752            752        170,398       -5,90557
            753            753        170,731       -5,90484
            754            754        171,065        -5,9041
            755            755        171,398       -5,90336
            756            756        171,731       -5,90277
            757            757        172,064       -5,90225
            758            758        172,397       -5,90185
            759            759        172,730       -5,90137
            760            760        173,063       -5,90134
            761            761        173,396        -5,9017
            762            762        173,729       -5,90245
            763            763        174,062       -5,90361
            764            764        174,395       -5,90278
            765            765        174,728       -5,89739
            766            766        175,062       -5,88969
            767            767        175,395       -5,88063
            768            768        175,729       -5,87044
            769            769        176,062       -5,86006
            770            770        176,396       -5,84983
            771            771        176,729       -5,83987
            772            772        177,063       -5,82902
            773            773        177,397       -5,81877
            774            774        177,730       -5,80997
            775            775        178,063       -5,80234
            776            776        178,397       -5,79595
            777            777        178,730        -5,7899
            778            778        179,063       -5,78405
            779            779        179,397       -5,77851
            780            780        179,730       -5,77385
            781            781        180,063       -5,76909
            782            782        180,397       -5,76518
            783            783        180,730       -5,76203
            784            784        181,063       -5,75965
            785            785        181,396       -5,75686
            786            786        181,729       -5,75418
            787            787        182,063       -5,75163
            788            788        182,396       -5,74955
            789            789        182,729       -5,74742
            790            790        183,062       -5,74538
            791            791        183,395       -5,74347
            792            792        183,728       -5,74207
            793            793        184,061       -5,74058
            794            794        184,395       -5,73916
            795            795        184,728       -5,73779
            796            796        185,061       -5,73672
            797            797        185,394       -5,73561
            798            798        185,727       -5,73456
            799            799        186,060        -5,7336
            800            800        186,393       -5,73278
            801            801        186,726         -5,732
            802            802        187,059       -5,73129
            803            803        187,393       -5,73064
            804            804        187,726        -5,7302
            805            805        188,059       -5,72966
            806            806        188,392       -5,72917
            807            807        188,725       -5,72874
            808            808        189,058       -5,72854
            809            809        189,391       -5,72831
            810            810        189,724       -5,72808
            811            811        190,057       -5,72786
            812            812        190,390        -5,7279
            813            813        190,723       -5,72786
            814            814        191,057       -5,72782
            815            815        191,390       -5,72782
            816            816        191,723       -5,72802
            817            817        192,056       -5,72819
            818            818        192,389       -5,72837
            819            819        192,722       -5,72863
            820            820        193,055        -5,7291
            821            821        193,388        -5,7294
            822            822        193,721       -5,72966
            823            823        194,054       -5,72994
            824            824        194,387       -5,73025
            825            825        194,720       -5,73047
            826            826        195,053       -5,73077
            827            827        195,386       -5,73118
            828            828        195,719       -5,73166
            829            829        196,052       -5,73246
            830            830        196,385       -5,73328
            831            831        196,718       -5,73417
            832            832        197,051       -5,73539
            833            833        197,384       -5,73742
            834            834        197,717       -5,73903
            835            835        198,050       -5,74084
            836            836        198,383       -5,74293
            837            837        198,716       -5,74885
            838            838        199,046       -5,81196
            839            839        199,368       -6,04532
            840            840        199,682       -6,42787
            841            841        199,334       -6,72792
            842            842        198,999       -6,75722
            843            843        198,684        -6,3975
            844            844        198,382       -5,77672
            845            845        198,100       -4,73571
            846            846        197,822       -3,62285
            847            847        197,544       -2,49852
            848            848        197,265       -1,39636
            849            849        196,979      -0,424233
            850            850        196,689       0,460504
            851            851        196,394        1,24375
            852            852        196,096        1,95916
            853            853        195,790        2,52677
            854            854        195,481        3,02991
            855            855        195,169        3,46493
            856            856        194,855        3,85682
            857            857        194,536        4,16167
            858            858        194,216        4,43003
            859            859        193,893        4,66096
            860            860        193,570        4,86812
            861            861        193,244        5,02963
            862            862        192,918        5,17127
            863            863        192,590        5,29306
            864            864        192,262        5,40257
            865            865        191,932        5,48631
            866            866        191,602        5,56023
            867            867        191,272        5,62387
            868            868        190,941        5,68065
            869            869        190,609        5,72467
            870            870        190,277        5,76331
            871            871        189,946        5,79702
            872            872        189,613        5,82745
            873            873        189,281        5,84988
            874            874        188,948        5,87024
            875            875        188,615        5,88786
            876            876        188,283        5,90371
            877            877        187,950        5,91564
            878            878        187,616        5,92605
            879            879        187,283        5,93465
            880            880        186,950          5,942
            881            881        186,617        5,94808
            882            882        186,283        5,95374
            883            883        185,950        5,95788
            884            884        185,617        5,96154
            885            885        185,283        5,96378
            886            886        184,950        5,96571
            887            887        184,616        5,96696
            888            888        184,282        5,96812
            889            889        183,949        5,96834
            890            890        183,615        5,96852
            891            891        183,282        5,96844
            892            892        182,948        5,96841
            893            893        182,614         5,9678
            894            894        182,281        5,96728
            895            895        181,947        5,96663
            896            896        181,613        5,96592
            897            897        181,280        5,96482
            898            898        180,946        5,96383
            899            899        180,612        5,96279
            900            900        180,279        5,96172
            901            901        179,945        5,96042
            902            902        179,611        5,95912
            903            903        179,278        5,95771
            904            904        178,944        5,95627
            905            905        178,610        5,95451
            906            906        178,277        5,95281
            907            907        177,943        5,95102
            908            908        177,609        5,94914
            909            909        177,276        5,94696
            910            910        176,942        5,94494
            911            911        176,608        5,94301
            912            912        176,274        5,94112
            913            913        175,941        5,93931
            914            914        175,607        5,93752
            915            915        175,273        5,93572
            916            916        174,940        5,93394
            917            917        174,606        5,93236
            918            918        174,272        5,93075
            919            919        173,939        5,92911
            920            920        173,605        5,92742
            921            921        173,271        5,92568
            922            922        172,938        5,92395
            923            923        172,604        5,92221
            924            924        172,270        5,92046
            925            925        171,936         5,9186
            926            926        171,603        5,91678
            927            927        171,269        5,91494
            928            928        170,935        5,91305
            929            929        170,602        5,91112
            930            930        170,268        5,90922
            931            931        169,934        5,90722
            932            932        169,600        5,90513
            933            933        169,267        5,90291
            934            934        168,933         5,9007
            935            935        168,599        5,89845
            936            936        168,266        5,89615
            937            937        167,932        5,89366
            938            938        167,598        5,89129
            939            939        167,264        5,88891
            940            940        166,931        5,88653
            941            941        166,597        5,88412
            942            942        166,263        5,88173
            943            943        165,930        5,87938
            944            944        165,596        5,87707
            945            945        165,262        5,87491
            946            946        164,928        5,87278
            947            947        164,595        5,87064
            948            948        164,261        5,86848
            949            949        163,927        5,86638
            950            950        163,594        5,86418
            951            951        163,260         5,8619
            952            952        162,926        5,85959
            953            953        162,592        5,85709
            954            954        162,259        5,85465
            955            955        161,925         5,8522
            956            956        161,591        5,84975
            957            957        161,257        5,84727
            958            958        160,924        5,84482
            959            959        160,590        5,84237
            960            960        160,256        5,83996
            961            961        159,923        5,83754
            962            962        159,589        5,83514
            963            963        159,255        5,83268
            964            964        158,921        5,83018
            965            965        158,588        5,82765
            966            966        158,254        5,82509
            967            967        157,920        5,82239
            968            968        157,586        5,81958
            969            969        157,253        5,81667
            970            970        156,919        5,81386
            971            971        156,585        5,81114
            972            972        156,251        5,80843
            973            973        155,918        5,80578
            974            974        155,584        5,80308
            975            975        155,250        5,80044
            976            976        154,917        5,79788
            977            977        154,583         5,7955
            978            978        154,249        5,79311
            979            979        153,915        5,79079
            980            980        153,582        5,78857
            981            981        153,248        5,78669
            982            982        152,914        5,78466
            983            983        152,581        5,78265
            984            984        152,247        5,78069
            985            985        151,913        5,77892
            986            986        151,579        5,77709
            987            987        151,246        5,77526
            988            988        150,912        5,77346
            989            989        150,578        5,77166
            990            990        150,245        5,76978
            991            991        149,911        5,76789
            992            992        149,577        5,76606
            993            993        149,244        5,76419
            994            994        148,910         5,7624
            995            995        148,576        5,76069
            996            996        148,242        5,75906
            997            997        147,909         5,7576
            998            998        147,575        5,75606
            999            999        147,241        5,75448
           1000           1000        146,908        5,75287
           1001           1001        146,574        5,75126
           1002           1002        146,240        5,74968
           1003           1003        145,907        5,74817
           1004           1004        145,573        5,74662
           1005           1005        145,239        5,74498
           1006           1006        144,906        5,74336
           1007           1007        144,572         5,7417
           1008           1008        144,238        5,73999
           1009           1009        143,905        5,73817
           1010           1010        143,571        5,73642
           1011           1011        143,237        5,73466
           1012           1012        142,903        5,73285
           1013           1013        142,570        5,73097
           1014           1014        142,236        5,72917
           1015           1015        141,902        5,72744
           1016           1016        141,569        5,72571
           1017           1017        141,235        5,72398
           1018           1018        140,901        5,72231
           1019           1019        140,568        5,72071
           1020           1020        140,234        5,71918
           1021           1021        139,900        5,71783
           1022           1022        139,566        5,71649
           1023           1023        139,233         5,7152
           1024           1024        138,899        5,71394
           1025           1025        138,565        5,71306
           1026           1026        138,232        5,71212
           1027           1027        137,898        5,71116
           1028           1028        137,564        5,71022
           1029           1029        137,231        5,70956
           1030           1030        136,897         5,7088
           1031           1031        136,564        5,70805
           1032           1032        136,230        5,70731
           1033           1033        135,896        5,70652
           1034           1034        135,563        5,70569
           1035           1035        135,229        5,70482
           1036           1036        134,895         5,7039
           1037           1037        134,562        5,70274
           1038           1038        134,228        5,70158
           1039           1039        133,894        5,70035
           1040           1040        133,561        5,69909
           1041           1041        133,227        5,69777
           1042           1042        132,893         5,6965
           1043           1043        132,559        5,69528
           1044           1044        132,226        5,69411
           1045           1045        131,892        5,69337
           1046           1046        131,559         5,6925
           1047           1047        131,225        5,69151
           1048           1048        130,891        5,69096
           1049           1049        130,558        5,69194
           1050           1050        130,224        5,69267
           1051           1051        129,890        5,69342
           1052           1052        129,557        5,69398
           1053           1053        129,223        5,69473
           1054           1054        128,890        5,69528
           1055           1055        128,556        5,69575
           1056           1056        128,222        5,69621
           1057           1057        127,889        5,69651
           1058           1058        127,555        5,69704
           1059           1059        127,222        5,69762
           1060           1060        126,888        5,69824
           1061           1061        126,554        5,69919
           1062           1062        126,221        5,70001
           1063           1063        125,887        5,70084
           1064           1064        125,554        5,70168
           1065           1065        125,220        5,70265
           1066           1066        124,886        5,70359
           1067           1067        124,553        5,70447
           1068           1068        124,219        5,70524
           1069           1069        123,886        5,70594
           1070           1070        123,552        5,70668
           1071           1071        123,218        5,70684
           1072           1072        122,885        5,70725
           1073           1073        122,551        5,70736
           1074           1074        122,217        5,70762
           1075           1075        121,884        5,70794
           1076           1076        121,550        5,70827
           1077           1077        121,217        5,70892
           1078           1078        120,883        5,70953
           1079           1079        120,549        5,70999
           1080           1080        120,216         5,7103
           1081           1081        119,882        5,71143
           1082           1082        119,549        5,71201
           1083           1083        119,215        5,71121
           1084           1084        118,881        5,70922
           1085           1085        118,547        5,70622
           1086           1086        118,214        5,70293
           1087           1087        117,880        5,69966
           1088           1088        117,546        5,69654
           1089           1089        117,212        5,69329
           1090           1090        116,879        5,69007
           1091           1091        116,545        5,68694
           1092           1092        116,211          5,684
           1093           1093        115,877         5,6834
           1094           1094        115,544        5,68227
           1095           1095        115,210        5,68066
           1096           1096        114,876         5,6785
           1097           1097        114,543        5,67713
           1098           1098        114,209        5,67573
           1099           1099        113,875        5,67435
           1100           1100        113,542        5,67331
           1101           1101        113,208        5,67293
           1102           1102        112,874         5,6729
           1103           1103        112,541        5,67302
           1104           1104        112,207        5,67312
           1105           1105        111,873        5,67336
           1106           1106        111,540        5,67457
           1107           1107        111,206        5,67785
           1108           1108        110,873        5,68085
           1109           1109        110,539        5,68399
           1110           1110        110,206        5,68704
           1111           1111        109,872        5,69017
           1112           1112        109,539        5,69333
           1113           1113        109,205        5,69673
           1114           1114        108,872        5,70008
           1115           1115        108,538        5,70341
           1116           1116        108,205        5,70679
           1117           1117        107,871        5,71024
           1118           1118        107,538        5,71364
           1119           1119        107,204        5,71711
           1120           1120        106,871        5,72065
           1121           1121        106,537         5,7242
           1122           1122        106,203        5,72768
           1123           1123        105,870        5,73106
           1124           1124        105,536        5,73434
           1125           1125        105,203         5,7375
           1126           1126        104,869        5,74031
           1127           1127        104,536        5,74317
           1128           1128        104,202        5,74596
           1129           1129        103,869        5,74867
           1130           1130        103,535        5,75092
           1131           1131        103,202        5,75322
           1132           1132        102,868         5,7554
           1133           1133        102,534        5,75746
           1134           1134        102,201        5,75908
           1135           1135        101,867        5,76101
           1136           1136        101,534        5,76206
           1137           1137        101,200        5,76237
           1138           1138        100,866        5,76266
           1139           1139        100,533        5,76309
           1140           1140        100,199        5,76348
           1141           1141         99,865         5,7638
           1142           1142         99,532        5,76368
           1143           1143         99,198        5,76252
           1144           1144         98,864        5,75923
           1145           1145         98,531        5,75564
           1146           1146         98,197         5,7571
           1147           1147         97,863         5,7573
           1148           1148         97,530        5,75727
           1149           1149         97,196        5,75711
           1150           1150         96,862        5,75682
           1151           1151         96,529        5,75667
           1152           1152         96,195        5,75651
           1153           1153         95,861        5,75601
           1154           1154         95,528        5,75276
           1155           1155         95,194        5,74974
           1156           1156         94,860        5,74678
           1157           1157         94,526        5,74396
           1158           1158         94,193        5,74092
           1159           1159         93,859         5,7379
           1160           1160         93,525        5,73486
           1161           1161         93,191        5,73183
           1162           1162         92,858        5,72879
           1163           1163         92,524        5,72584
           1164           1164         92,190        5,72302
           1165           1165         91,856        5,72029
           1166           1166         91,523        5,71768
           1167           1167         91,189        5,71506
           1168           1168         90,855        5,71249
           1169           1169         90,521        5,70995
           1170           1170         90,188        5,70777
           1171           1171         89,854        5,70553
           1172           1172         89,520        5,70318
           1173           1173         89,186         5,7008
           1174           1174         88,853        5,69857
           1175           1175         88,519        5,69627
           1176           1176         88,185        5,69394
           1177           1177         87,852        5,69158
           1178           1178         87,518        5,68914
           1179           1179         87,184         5,6868
           1180           1180         86,850        5,68457
           1181           1181         86,517        5,68237
           1182           1182         86,183        5,68029
           1183           1183         85,849        5,67825
           1184           1184         85,516        5,67635
           1185           1185         85,182        5,67455
           1186           1186         84,848        5,67315
           1187           1187         84,514        5,67169
           1188           1188         84,181        5,67024
           1189           1189         83,847        5,66878
           1190           1190         83,513        5,66762
           1191           1191         83,180        5,66624
           1192           1192         82,846        5,66483
           1193           1193         82,512        5,66343
           1194           1194         82,179        5,66196
           1195           1195         81,845        5,66063
           1196           1196         81,511        5,65941
           1197           1197         81,177         5,6582
           1198           1198         80,844        5,65726
           1199           1199         80,510         5,6563
           1200           1200         80,176        5,65539
           1201           1201         79,843        5,65446
           1202           1202         79,509        5,65377
           1203           1203         79,175        5,65306
           1204           1204         78,842         5,6524
           1205           1205         78,508        5,65174
           1206           1206         78,174        5,65115
           1207           1207         77,841        5,65056
           1208           1208         77,507        5,65003
           1209           1209         77,173        5,64948
           1210           1210         76,840        5,64893
           1211           1211         76,506         5,6484
           1212           1212         76,172         5,6479
           1213           1213         75,839        5,64739
           1214           1214         75,505        5,64693
           1215           1215         75,171        5,64643
           1216           1216         74,838         5,6459
           1217           1217         74,504        5,64535
           1218           1218         74,170        5,64482
           1219           1219         73,837        5,64428
           1220           1220         73,503        5,64368
           1221           1221         73,169        5,64303
           1222           1222         72,836        5,64223
           1223           1223         72,502        5,64154
           1224           1224         72,168        5,64085
           1225           1225         71,834        5,64009
           1226           1226         71,501        5,63927
           1227           1227         71,167        5,63862
           1228           1228         70,833        5,63809
           1229           1229         70,500        5,63761
           1230           1230         70,166        5,63728
           1231           1231         69,832        5,63696
           1232           1232         69,499        5,63672
           1233           1233         69,165        5,63644
           1234           1234         68,831        5,63623
           1235           1235         68,498        5,63592
           1236           1236         68,164        5,63557
           1237           1237         67,830        5,63527
           1238           1238         67,497        5,63482
           1239           1239         67,163        5,63433
           1240           1240         66,829        5,63383
           1241           1241         66,496        5,63337
           1242           1242         66,162        5,63292
           1243           1243         65,828        5,63246
           1244           1244         65,495        5,63194
           1245           1245         65,161         5,6314
           1246           1246         64,827        5,63104
           1247           1247         64,494        5,63066
           1248           1248         64,160        5,63031
           1249           1249         63,826        5,62995
           1250           1250         63,493        5,62967
           1251           1251         63,159        5,62934
           1252           1252         62,825        5,62898
           1253           1253         62,492        5,62866
           1254           1254         62,158        5,62831
           1255           1255         61,824        5,62804
           1256           1256         61,491        5,62781
           1257           1257         61,157        5,62754
           1258           1258         60,823        5,62725
           1259           1259         60,490        5,62684
           1260           1260         60,156        5,62642
           1261           1261         59,822        5,62598
           1262           1262         59,489        5,62542
           1263           1263         59,155        5,62511
           1264           1264         58,821        5,62491
           1265           1265         58,488         5,6246
           1266           1266         58,154        5,62509
           1267           1267         57,820        5,62536
           1268           1268         57,487        5,62565
           1269           1269         57,153        5,62597
           1270           1270         56,819        5,62646
           1271           1271         56,486        5,62689
           1272           1272         56,152        5,62731
           1273           1273         55,818        5,62778
           1274           1274         55,485        5,62791
           1275           1275         55,151        5,62801
           1276           1276         54,818         5,6282
           1277           1277         54,484         5,6284
           1278           1278         54,150        5,62694
           1279           1279         53,817        5,62567
           1280           1280         53,483        5,62471
           1281           1281         53,149        5,62384
           1282           1282         52,815        5,62273
           1283           1283         52,482        5,62162
           1284           1284         52,148        5,62046
           1285           1285         51,814        5,61927
           1286           1286         51,481        5,61794
           1287           1287         51,147         5,6167
           1288           1288         50,813        5,61529
           1289           1289         50,480        5,61394
           1290           1290         50,146        5,61342
           1291           1291         49,812        5,61193
           1292           1292         49,479        5,60605
           1293           1293         49,145        5,59688
           1294           1294         48,811        5,59829
           1295           1295         48,477        5,59964
           1296           1296         48,144        5,60069
           1297           1297         47,810        5,60093
           1298           1298         47,477        5,60021
           1299           1299         47,143        5,59914
           1300           1300         46,809        5,59673
           1301           1301         46,475        5,59385
           1302           1302         46,142        5,59029
           1303           1303         45,808        5,58722
           1304           1304         45,474        5,58393
           1305           1305         45,140        5,58035
           1306           1306         44,807         5,5748
           1307           1307         44,473        5,56878
           1308           1308         44,139        5,56292
           1309           1309         43,805        5,55674
           1310           1310         43,471        5,55041
           1311           1311         43,138        5,54406
           1312           1312         42,804         5,5377
           1313           1313         42,470         5,5312
           1314           1314         42,136        5,52392
           1315           1315         41,802        5,51522
           1316           1316         41,468        5,50487
           1317           1317         41,135        5,49371
           1318           1318         40,801        5,48134
           1319           1319         40,467        5,46908
           1320           1320         40,133        5,45659
           1321           1321         39,799        5,44402
           1322           1322         39,465        5,43056
           1323           1323         39,131        5,41499
           1324           1324         38,797        5,39527
           1325           1325         38,463        5,37499
           1326           1326         38,129        5,36194
           1327           1327         37,795        5,34796
           1328           1328         37,461         5,3326
           1329           1329         37,127        5,31615
           1330           1330         36,793        5,29886
           1331           1331         36,459        5,28165
           1332           1332         36,124        5,26419
           1333           1333         35,790        5,24674
           1334           1334         35,456        5,22773
           1335           1335         35,122        5,20918
           1336           1336         34,788        5,19059
           1337           1337         34,454        5,17188
           1338           1338         34,120        5,15277
           1339           1339         33,786        5,13401
           1340           1340         33,452        5,11539
           1341           1341         33,118        5,09687
           1342           1342         32,784        5,07867
           1343           1343         32,450        5,06042
           1344           1344         32,116        5,04227
           1345           1345         31,782        5,02443
           1346           1346         31,448        5,00721
           1347           1347         31,114        4,99046
           1348           1348         30,780        4,97404
           1349           1349         30,446        4,95752
           1350           1350         30,112        4,94225
           1351           1351         29,778        4,92736
           1352           1352         29,444        4,91367
           1353           1353         29,110        4,89992
           1354           1354         28,776        4,88644
           1355           1355         28,442        4,87278
           1356           1356         28,108        4,85936
           1357           1357         27,774        4,84639
           1358           1358         27,441        4,83381
           1359           1359         27,107        4,82073
           1360           1360         26,773        4,80643
           1361           1361         26,439        4,79138
           1362           1362         26,105        4,78303
           1363           1363         25,771        4,77399
           1364           1364         25,437        4,76484
           1365           1365         25,104        4,75594
           1366           1366         24,770        4,74703
           1367           1367         24,436        4,73822
           1368           1368         24,102         4,7295
           1369           1369         23,768        4,72092
           1370           1370         23,435        4,71279
           1371           1371         23,101        4,70462
           1372           1372         22,767        4,69659
           1373           1373         22,433        4,68859
           1374           1374         22,100        4,68115
           1375           1375         21,766        4,67365
           1376           1376         21,432        4,66609
           1377           1377         21,098        4,65867
           1378           1378         20,765        4,65262
           1379           1379         20,431        4,64684
           1380           1380         20,097         4,6412
           1381           1381         19,763        4,63605
           1382           1382         19,430        4,63124
           1383           1383         19,096        4,62637
           1384           1384         18,762         4,6216
           1385           1385         18,429        4,61677
           1386           1386         18,095        4,61323
           1387           1387         17,761        4,60937
           1388           1388         17,428        4,60554
           1389           1389         17,094        4,60186
           1390           1390         16,760        4,59885
           1391           1391         16,427        4,59562
           1392           1392         16,093        4,59251
           1393           1393         15,759        4,58957
           1394           1394         15,426        4,58659
           1395           1395         15,092        4,58443
           1396           1396         14,758        4,58231
           1397           1397         14,425        4,58009
           1398           1398         14,091         4,5778
           1399           1399         13,758        4,57579
           1400           1400         13,424        4,57359
           1401           1401         13,090        4,57131
           1402           1402         12,757          4,569
           1403           1403         12,423        4,56644
           1404           1404         12,089         4,5639
           1405           1405         11,756        4,56129
           1406           1406         11,422        4,55875
           1407           1407         11,088        4,55611
           1408           1408         10,755         4,5535
           1409           1409         10,421        4,55089
           1410           1410         10,088        4,54834
           1411           1411          9,754          4,546
           1412           1412          9,420        4,54366
           1413           1413          9,087        4,54143
           1414           1414          8,753        4,53928
           1415           1415          8,419        4,53745
           1416           1416          8,086        4,53563
           1417           1417          7,752        4,53386
           1418           1418          7,418        4,53205
           1419           1419          7,085        4,53046
           1420           1420          6,751        4,52876
           1421           1421          6,418        4,52703
           1422           1422          6,084        4,52522
           1423           1423          5,750        4,52355
           1424           1424          5,417        4,52202
           1425           1425          5,083        4,52057
           1426           1426          4,750        4,51911
           1427           1427          4,416        4,51785
           1428           1428          4,082        4,51639
           1429           1429          3,749        4,51485
           1430           1430          3,415        4,51325
           1431           1431          3,081         4,5116
           1432           1432          2,748        4,51004
           1433           1433          2,414        4,50859
           1434           1434          2,081        4,50706
           1435           1435          1,747        4,50632
           1436           1436          1,413        4,50556
           1437           1437          1,080        4,50466
           1438           1438          0,746        4,50385
           1439           1439          0,413        4,50359
           1440           1440     79,033e-03        4,50329
           1441           1441         -0,255        4,50296
           1442           1442         -0,588        4,50263
           1443           1443         -0,922        4,50274
           1444           1444         -1,255        4,50281
           1445           1445         -1,589        4,50296
           1446           1446         -1,922        4,50316
           1447           1447         -2,256        4,50342
           1448           1448         -2,590        4,50372
           1449           1449         -2,923        4,50411
           1450           1450         -3,257        4,50455
           1451           1451         -3,590        4,50514
           1452           1452         -3,924        4,50581
           1453           1453         -4,258        4,50647
           1454           1454         -4,591        4,50729
           1455           1455         -4,925        4,50882
           1456           1456         -5,258         4,5113
           1457           1457         -5,592        4,51365
           1458           1458         -5,925         4,5156
           1459           1459         -6,259        4,51688
           1460           1460         -6,592        4,51865
           1461           1461         -6,926        4,52049
           1462           1462         -7,260        4,52226
           1463           1463         -7,593        4,52441
           1464           1464         -7,927        4,52647
           1465           1465         -8,260        4,52855
           1466           1466         -8,594        4,53068
           1467           1467         -8,927        4,53309
           1468           1468         -9,261        4,53558
           1469           1469         -9,594        4,53804
           1470           1470         -9,928        4,54051
           1471           1471        -10,262        4,54333
           1472           1472        -10,595        4,54608
           1473           1473        -10,929        4,54863
           1474           1474        -11,262        4,55091
           1475           1475        -11,596         4,5546
           1476           1476        -11,929        4,55898
           1477           1477        -12,263        4,56291
           1478           1478        -12,596        4,56667
           1479           1479        -12,930        4,57054
           1480           1480        -13,263         4,5745
           1481           1481        -13,597         4,5784
           1482           1482        -13,930        4,58224
           1483           1483        -14,264        4,58627
           1484           1484        -14,597        4,59036
           1485           1485        -14,931        4,59446
           1486           1486        -15,265        4,59871
           1487           1487        -15,598        4,60393
           1488           1488        -15,932        4,60954
           1489           1489        -16,265        4,61686
           1490           1490        -16,598        4,62528
           1491           1491        -16,932        4,63155
           1492           1492        -17,265        4,63836
           1493           1493        -17,599        4,64532
           1494           1494        -17,932        4,65239
           1495           1495        -18,266        4,65959
           1496           1496        -18,599        4,66677
           1497           1497        -18,933        4,67385
           1498           1498        -19,266        4,68081
           1499           1499        -19,600        4,68797
           1500           1500        -19,933        4,69502
           1501           1501        -20,267        4,70191
           1502           1502        -20,600        4,70883
           1503           1503        -20,934         4,7157
           1504           1504        -21,267        4,72259
           1505           1505        -21,601         4,7294
           1506           1506        -21,934        4,73613
           1507           1507        -22,268        4,74261
           1508           1508        -22,601         4,7491
           1509           1509        -22,935        4,75531
           1510           1510        -23,268        4,76152
           1511           1511        -23,602         4,7659
           1512           1512        -23,935        4,77094
           1513           1513        -24,269        4,77596
           1514           1514        -24,602        4,78084
           1515           1515        -24,936        4,78554
           1516           1516        -25,269        4,79026
           1517           1517        -25,603        4,79484
           1518           1518        -25,937        4,79928
           1519           1519        -26,270        4,80349
           1520           1520        -26,604        4,80768
           1521           1521        -26,937        4,81183
           1522           1522        -27,271        4,81572
           1523           1523        -27,604        4,81881
           1524           1524        -27,938        4,82235
           1525           1525        -28,271        4,82592
           1526           1526        -28,605         4,8295
           1527           1527        -28,938        4,83309
           1528           1528        -29,272        4,83666
           1529           1529        -29,605        4,84016
           1530           1530        -29,939        4,84349
           1531           1531        -30,273        4,84502
           1532           1532        -30,606        4,84663
           1533           1533        -30,940        4,84835
           1534           1534        -31,273        4,85018
           1535           1535        -31,607        4,85199
           1536           1536        -31,940        4,85385
           1537           1537        -32,274        4,85579
           1538           1538        -32,608        4,85768
           1539           1539        -32,941        4,85978
           1540           1540        -33,275        4,86199
           1541           1541        -33,608        4,86419
           1542           1542        -33,942        4,86635
           1543           1543        -34,275        4,86853
           1544           1544        -34,609        4,87101
           1545           1545        -34,942        4,87297
           1546           1546        -35,276        4,87435
           1547           1547        -35,610          4,877
           1548           1548        -35,943        4,87926
           1549           1549        -36,277        4,88158
           1550           1550        -36,610        4,88381
           1551           1551        -36,944        4,88489
           1552           1552        -37,277        4,88628
           1553           1553        -37,611        4,88787
           1554           1554        -37,945        4,89032
           1555           1555        -38,278        4,89612
           1556           1556        -38,612        4,90076
           1557           1557        -38,945        4,90209
           1558           1558        -39,279        4,90328
           1559           1559        -39,612        4,90665
           1560           1560        -39,946         4,9101
           1561           1561        -40,279        4,91379
           1562           1562        -40,613        4,91721
           1563           1563        -40,946        4,92114
           1564           1564        -41,280        4,92506
           1565           1565        -41,613        4,92893
           1566           1566        -41,947        4,93275
           1567           1567        -42,281        4,93694
           1568           1568        -42,614        4,94103
           1569           1569        -42,948        4,94511
           1570           1570        -43,281        4,94919
           1571           1571        -43,615        4,95327
           1572           1572        -43,948        4,95742
           1573           1573        -44,282        4,96282
           1574           1574        -44,615        4,97048
           1575           1575        -44,949        4,97708
           1576           1576        -45,282        4,98112
           1577           1577        -45,616        4,98624
           1578           1578        -45,949        4,99116
           1579           1579        -46,283        4,99676
           1580           1580        -46,616        5,00237
           1581           1581        -46,950        5,00862
           1582           1582        -47,283        5,01523
           1583           1583        -47,617        5,02243
           1584           1584        -47,950        5,02962
           1585           1585        -48,284        5,03692
           1586           1586        -48,617        5,04456
           1587           1587        -48,951        5,05351
           1588           1588        -49,284        5,06179
           1589           1589        -49,618        5,07016
           1590           1590        -49,951        5,07873
           1591           1591        -50,285        5,08694
           1592           1592        -50,618        5,09519
           1593           1593        -50,952        5,10486
           1594           1594        -51,285        5,11571
           1595           1595        -51,619          5,127
           1596           1596        -51,952        5,13819
           1597           1597        -52,286        5,14882
           1598           1598        -52,619        5,15513
           1599           1599        -52,953        5,16502
           1600           1600        -53,286        5,17647
           1601           1601        -53,620        5,18617
           1602           1602        -53,953        5,19596
           1603           1603        -54,287        5,20618
           1604           1604        -54,620        5,21748
           1605           1605        -54,954        5,22914
           1606           1606        -55,287        5,24037
           1607           1607        -55,621        5,25113
           1608           1608        -55,954        5,26226
           1609           1609        -56,288        5,27352
           1610           1610        -56,621        5,28506
           1611           1611        -56,955        5,29732
           1612           1612        -57,288         5,3092
           1613           1613        -57,622        5,32109
           1614           1614        -57,955        5,33313
           1615           1615        -58,289        5,34503
           1616           1616        -58,622         5,3553
           1617           1617        -58,956        5,36261
           1618           1618        -59,289        5,36908
           1619           1619        -59,623        5,37503
           1620           1620        -59,956        5,38101
           1621           1621        -60,290        5,38747
           1622           1622        -60,623        5,39479
           1623           1623        -60,957        5,39726
           1624           1624        -61,290         5,4011
           1625           1625        -61,624        5,40614
           1626           1626        -61,957        5,40859
           1627           1627        -62,291        5,41178
           1628           1628        -62,625        5,41367
           1629           1629        -62,958        5,41192
           1630           1630        -63,292        5,40935
           1631           1631        -63,625        5,40194
           1632           1632        -63,959         5,3974
           1633           1633        -64,293        5,39261
           1634           1634        -64,626         5,3868
           1635           1635        -64,960        5,38007
           1636           1636        -65,294        5,37362
           1637           1637        -65,627         5,3671
           1638           1638        -65,961        5,36043
           1639           1639        -66,294        5,35059
           1640           1640        -66,628        5,33444
           1641           1641        -66,962        5,31605
           1642           1642        -67,296        5,29709
           1643           1643        -67,629        5,27689
           1644           1644        -67,963        5,25648
           1645           1645        -68,297        5,23453
           1646           1646        -68,630        5,21122
           1647           1647        -68,964        5,18477
           1648           1648        -69,298        5,15879
           1649           1649        -69,632        5,13276
           1650           1650        -69,965        5,10666
           1651           1651        -70,299        5,08116
           1652           1652        -70,633        5,05607
           1653           1653        -70,967        5,03143
           1654           1654        -71,300        5,00455
           1655           1655        -71,634         4,9772
           1656           1656        -71,968        4,95024
           1657           1657        -72,302        4,92358
           1658           1658        -72,635        4,89774
           1659           1659        -72,969        4,87446
           1660           1660        -73,303        4,85124
           1661           1661        -73,636        4,82811
           1662           1662        -73,970        4,80498
           1663           1663        -74,304        4,78357
           1664           1664        -74,637        4,76216
           1665           1665        -74,971        4,74153
           1666           1666        -75,305        4,72197
           1667           1667        -75,638        4,70241
           1668           1668        -75,972        4,68291
           1669           1669        -76,306        4,66361
           1670           1670        -76,639         4,6445
           1671           1671        -76,973        4,62539
           1672           1672        -77,307        4,60713
           1673           1673        -77,640        4,59095
           1674           1674        -77,974        4,57488
           1675           1675        -78,307        4,55226
           1676           1676        -78,641        4,53513
           1677           1677        -78,975        4,53215
           1678           1678        -79,308        4,55591
           1679           1679        -79,640        4,78106
           1680           1680        -79,974        4,82673
           1681           1681        -79,640        4,81942
           1682           1682        -79,307        4,80519
           1683           1683        -78,971        5,15315
           1684           1684        -78,634        5,73821
           1685           1685        -78,297        6,33986
           1686           1686        -77,961        6,80793
           1687           1687        -77,628        6,61841
           1688           1688        -77,298        6,12083
           1689           1689        -76,969        5,36646
           1690           1690        -76,640        4,49026
           1691           1691        -76,312        3,53135
           1692           1692        -75,984        2,60013
           1693           1693        -75,656        1,72871
           1694           1694        -75,328       0,904416
           1695           1695        -74,999       0,206087
           1696           1696        -74,669      -0,427482
           1697           1697        -74,339      -0,993134
           1698           1698        -74,009       -1,50996
           1699           1699        -73,679       -1,93212
           1700           1700        -73,348       -2,30836
           1701           1701        -73,017       -2,63553
           1702           1702        -72,686       -2,93437
           1703           1703        -72,354       -3,17896
           1704           1704        -72,022       -3,39586
           1705           1705        -71,690       -3,58787
           1706           1706        -71,358       -3,76254
           1707           1707        -71,026       -3,89715
           1708           1708        -70,694       -4,01914
           1709           1709        -70,361        -4,1273
           1710           1710        -70,029       -4,22613
           1711           1711        -69,696       -4,30363
           1712           1712        -69,363       -4,37351
           1713           1713        -69,031       -4,43548
           1714           1714        -68,698       -4,49359
           1715           1715        -68,365       -4,53829
           1716           1716        -68,032       -4,58127
           1717           1717        -67,699       -4,62138
           1718           1718        -67,367       -4,65844
           1719           1719        -67,034       -4,68839
           1720           1720        -66,701       -4,71863
           1721           1721        -66,368       -4,74913
           1722           1722        -66,035       -4,78014
           1723           1723        -65,702       -4,80531
           1724           1724        -65,369        -4,8306
           1725           1725        -65,036         -4,856
           1726           1726        -64,703       -4,88141
           1727           1727        -64,370       -4,90605
           1728           1728        -64,037       -4,92966
           1729           1729        -63,704       -4,95574
           1730           1730        -63,372       -4,98029
           1731           1731        -63,039       -5,00271
           1732           1732        -62,706       -5,02064
           1733           1733        -62,373       -5,03757
           1734           1734        -62,040       -5,05427
           1735           1735        -61,707       -5,07088
           1736           1736        -61,374       -5,08651
           1737           1737        -61,041       -5,09938
           1738           1738        -60,708       -5,11114
           1739           1739        -60,375       -5,12186
           1740           1740        -60,042        -5,1324
           1741           1741        -59,709       -5,14272
           1742           1742        -59,376       -5,15366
           1743           1743        -59,043       -5,15853
           1744           1744        -58,710       -5,16244
           1745           1745        -58,377       -5,16582
           1746           1746        -58,043       -5,16883
           1747           1747        -57,710       -5,17095
           1748           1748        -57,377       -5,17279
           1749           1749        -57,044       -5,17148
           1750           1750        -56,711       -5,16895
           1751           1751        -56,378       -5,16432
           1752           1752        -56,045       -5,16147
           1753           1753        -55,712       -5,16064
           1754           1754        -55,379       -5,15625
           1755           1755        -55,046       -5,15124
           1756           1756        -54,712        -5,1451
           1757           1757        -54,379       -5,13526
           1758           1758        -54,046       -5,12492
           1759           1759        -53,713        -5,1109
           1760           1760        -53,380       -5,10132
           1761           1761        -53,046       -5,09213
           1762           1762        -52,713       -5,08325
           1763           1763        -52,380        -5,0756
           1764           1764        -52,047       -5,06696
           1765           1765        -51,714       -5,05465
           1766           1766        -51,381       -5,04133
           1767           1767        -51,047        -5,0283
           1768           1768        -50,714        -5,0179
           1769           1769        -50,381       -5,00758
           1770           1770        -50,048       -4,99675
           1771           1771        -49,715       -4,98954
           1772           1772        -49,381       -4,98195
           1773           1773        -49,048       -4,97339
           1774           1774        -48,715       -4,96401
           1775           1775        -48,382       -4,95415
           1776           1776        -48,049       -4,94453
           1777           1777        -47,716       -4,93531
           1778           1778        -47,382       -4,92623
           1779           1779        -47,049       -4,91486
           1780           1780        -46,716       -4,91028
           1781           1781        -46,383       -4,91485
           1782           1782        -46,050       -4,92646
           1783           1783        -45,717       -4,92849
           1784           1784        -45,384       -4,92292
           1785           1785        -45,051       -4,91548
           1786           1786        -44,717       -4,90764
           1787           1787        -44,384       -4,90551
           1788           1788        -44,051       -4,90225
           1789           1789        -43,718       -4,89617
           1790           1790        -43,385       -4,88893
           1791           1791        -43,052       -4,88168
           1792           1792        -42,719       -4,87617
           1793           1793        -42,385       -4,87204
           1794           1794        -42,052       -4,86823
           1795           1795        -41,719       -4,86501
           1796           1796        -41,386       -4,86314
           1797           1797        -41,053        -4,8623
           1798           1798        -40,720       -4,86182
           1799           1799        -40,387       -4,85743
           1800           1800        -40,054       -4,85635
           1801           1801        -39,721       -4,85687
           1802           1802        -39,387        -4,8579
           1803           1803        -39,054       -4,85991
           1804           1804        -38,721        -4,8649
           1805           1805        -38,388       -4,87368
           1806           1806        -38,055       -4,88043
           1807           1807        -37,722       -4,87886
           1808           1808        -37,389       -4,87459
           1809           1809        -37,056       -4,87007
           1810           1810        -36,723       -4,86567
           1811           1811        -36,390       -4,86201
           1812           1812        -36,057       -4,85842
           1813           1813        -35,723        -4,8555
           1814           1814        -35,390       -4,85256
           1815           1815        -35,057       -4,84978
           1816           1816        -34,724       -4,84585
           1817           1817        -34,391       -4,84126
           1818           1818        -34,058       -4,83633
           1819           1819        -33,725       -4,83169
           1820           1820        -33,392        -4,8273
           1821           1821        -33,058       -4,82276
           1822           1822        -32,725       -4,81776
           1823           1823        -32,392       -4,81382
           1824           1824        -32,059       -4,80892
           1825           1825        -31,726        -4,8042
           1826           1826        -31,393       -4,80121
           1827           1827        -31,060       -4,79925
           1828           1828        -30,727        -4,7968
           1829           1829        -30,393       -4,79434
           1830           1830        -30,060       -4,79192
           1831           1831        -29,727       -4,78869
           1832           1832        -29,394       -4,78577
           1833           1833        -29,061       -4,78283
           1834           1834        -28,728       -4,77984
           1835           1835        -28,395       -4,77639
           1836           1836        -28,062       -4,77318
           1837           1837        -27,728       -4,77012
           1838           1838        -27,395        -4,7671
           1839           1839        -27,062        -4,7637
           1840           1840        -26,729       -4,76066
           1841           1841        -26,396        -4,7588
           1842           1842        -26,063       -4,75713
           1843           1843        -25,730       -4,75619
           1844           1844        -25,397       -4,75462
           1845           1845        -25,064       -4,75315
           1846           1846        -24,731       -4,75251
           1847           1847        -24,397       -4,75283
           1848           1848        -24,064       -4,75306
           1849           1849        -23,731       -4,75357
           1850           1850        -23,398       -4,75406
           1851           1851        -23,065       -4,75504
           1852           1852        -22,732       -4,75601
           1853           1853        -22,399       -4,75686
           1854           1854        -22,066       -4,75851
           1855           1855        -21,733        -4,7607
           1856           1856        -21,400       -4,75979
           1857           1857        -21,067       -4,75941
           1858           1858        -20,734       -4,76135
           1859           1859        -20,401       -4,76391
           1860           1860        -20,068       -4,76601
           1861           1861        -19,735       -4,76759
           1862           1862        -19,402       -4,76799
           1863           1863        -19,068       -4,76759
           1864           1864        -18,735        -4,7678
           1865           1865        -18,402       -4,76805
           1866           1866        -18,069       -4,76831
           1867           1867        -17,736       -4,76849
           1868           1868        -17,403       -4,76871
           1869           1869        -17,070        -4,7688
           1870           1870        -16,737       -4,76875
           1871           1871        -16,404       -4,76888
           1872           1872        -16,071       -4,76877
           1873           1873        -15,738       -4,76798
           1874           1874        -15,405       -4,76665
           1875           1875        -15,072       -4,76464
           1876           1876        -14,738       -4,76259
           1877           1877        -14,405       -4,76023
           1878           1878        -14,072       -4,75745
           1879           1879        -13,739       -4,75423
           1880           1880        -13,406       -4,75116
           1881           1881        -13,073       -4,74793
           1882           1882        -12,740       -4,74453
           1883           1883        -12,407       -4,74086
           1884           1884        -12,074       -4,73728
           1885           1885        -11,740       -4,73305
           1886           1886        -11,407       -4,72767
           1887           1887        -11,074       -4,72134
           1888           1888        -10,741       -4,71567
           1889           1889        -10,408       -4,71004
           1890           1890        -10,075        -4,7043
           1891           1891         -9,741       -4,69878
           1892           1892         -9,408       -4,69301
           1893           1893         -9,075       -4,68608
           1894           1894         -8,742       -4,67933
           1895           1895         -8,409       -4,67288
           1896           1896         -8,076       -4,66652
           1897           1897         -7,742       -4,66024
           1898           1898         -7,409       -4,65404
           1899           1899         -7,076       -4,64842
           1900           1900         -6,743       -4,64268
           1901           1901         -6,410       -4,63696
           1902           1902         -6,077       -4,63148
           1903           1903         -5,743       -4,62678
           1904           1904         -5,410       -4,62205
           1905           1905         -5,077       -4,61728
           1906           1906         -4,744       -4,61259
           1907           1907         -4,411       -4,60836
           1908           1908         -4,078       -4,60392
           1909           1909         -3,745       -4,59972
           1910           1910         -3,411       -4,59598
           1911           1911         -3,078       -4,59308
           1912           1912         -2,745       -4,59007
           1913           1913         -2,412       -4,58692
           1914           1914         -2,079       -4,58381
           1915           1915         -1,746       -4,58119
           1916           1916         -1,413       -4,57812
           1917           1917         -1,080       -4,57506
           1918           1918         -0,746       -4,57296
           1919           1919         -0,413       -4,57125
           1920           1920    -80,190e-03       -4,56923
           1921           1921          0,253       -4,56727
           1922           1922          0,586       -4,56536
           1923           1923          0,919       -4,56363
           1924           1924          1,252       -4,56187
           1925           1925          1,585       -4,56017
           1926           1926          1,918       -4,55854
           1927           1927          2,252       -4,55718
           1928           1928          2,585       -4,55575
           1929           1929          2,918       -4,55432
           1930           1930          3,251       -4,55301
           1931           1931          3,584       -4,55185
           1932           1932          3,917       -4,55077
           1933           1933          4,250       -4,54984
           1934           1934          4,583       -4,54892
           1935           1935          4,916       -4,54793
           1936           1936          5,249       -4,54686
           1937           1937          5,583       -4,54575
           1938           1938          5,916       -4,54464
           1939           1939          6,249       -4,54313
           1940           1940          6,582       -4,54167
           1941           1941          6,915       -4,54016
           1942           1942          7,248       -4,53863
           1943           1943          7,581       -4,53707
           1944           1944          7,914       -4,53573
           1945           1945          8,247       -4,53453
           1946           1946          8,580       -4,53342
           1947           1947          8,914       -4,53263
           1948           1948          9,247       -4,53183
           1949           1949          9,580       -4,53102
           1950           1950          9,913       -4,53031
           1951           1951         10,246       -4,52989
           1952           1952         10,579       -4,52943
           1953           1953         10,912       -4,52911
           1954           1954         11,245       -4,52889
           1955           1955         11,578       -4,52901
           1956           1956         11,911         -4,529
           1957           1957         12,244       -4,52897
           1958           1958         12,577       -4,52894
           1959           1959         12,911         -4,529
           1960           1960         13,244       -4,52893
           1961           1961         13,577       -4,52889
           1962           1962         13,910       -4,52889
           1963           1963         14,243       -4,52874
           1964           1964         14,576       -4,52873
           1965           1965         14,909       -4,52888
           1966           1966         15,242       -4,52917
           1967           1967         15,575       -4,52971
           1968           1968         15,908       -4,53027
           1969           1969         16,241       -4,53083
           1970           1970         16,574        -4,5314
           1971           1971         16,907       -4,53226
           1972           1972         17,240       -4,53303
           1973           1973         17,574       -4,53369
           1974           1974         17,907       -4,53426
           1975           1975         18,240        -4,5348
           1976           1976         18,573       -4,53542
           1977           1977         18,906       -4,53606
           1978           1978         19,239       -4,53667
           1979           1979         19,572       -4,53784
           1980           1980         19,905        -4,5389
           1981           1981         20,238       -4,54012
           1982           1982         20,571       -4,54148
           1983           1983         20,904       -4,54324
           1984           1984         21,237       -4,54483
           1985           1985         21,570       -4,54645
           1986           1986         21,903        -4,5482
           1987           1987         22,236       -4,55037
           1988           1988         22,569       -4,55245
           1989           1989         22,902       -4,55452
           1990           1990         23,235       -4,55665
           1991           1991         23,568       -4,55933
           1992           1992         23,901       -4,56161
           1993           1993         24,234       -4,56386
           1994           1994         24,567        -4,5667
           1995           1995         24,900         -4,571
           1996           1996         25,233       -4,57454
           1997           1997         25,566       -4,57805
           1998           1998         25,899       -4,58163
           1999           1999         26,232       -4,58546
           2000           2000         26,565       -4,58888
           2001           2001         26,898       -4,59292
           2002           2002         27,231       -4,59795
           2003           2003         27,564       -4,60316
           2004           2004         27,897       -4,60811
           2005           2005         28,230       -4,61319
           2006           2006         28,563       -4,61836
           2007           2007         28,896       -4,62388
           2008           2008         29,229       -4,62942
           2009           2009         29,562       -4,63507
           2010           2010         29,895       -4,64115
           2011           2011         30,228       -4,64792
           2012           2012         30,561       -4,65518
           2013           2013         30,894       -4,66289
           2014           2014         31,227       -4,67065
           2015           2015         31,559        -4,6794
           2016           2016         31,892       -4,68807
           2017           2017         32,225       -4,69671
           2018           2018         32,558       -4,70575
           2019           2019         32,891       -4,71511
           2020           2020         33,224       -4,72503
           2021           2021         33,557       -4,73645
           2022           2022         33,889       -4,74833
           2023           2023         34,222       -4,76041
           2024           2024         34,555       -4,77246
           2025           2025         34,888       -4,78558
           2026           2026         35,220       -4,80087
           2027           2027         35,553       -4,81601
           2028           2028         35,886       -4,83124
           2029           2029         36,218       -4,84633
           2030           2030         36,551       -4,86151
           2031           2031         36,884       -4,87766
           2032           2032         37,216       -4,89483
           2033           2033         37,549       -4,91326
           2034           2034         37,882       -4,93211
           2035           2035         38,214       -4,95215
           2036           2036         38,547       -4,97315
           2037           2037         38,879       -4,99456
           2038           2038         39,212       -5,01629
           2039           2039         39,544       -5,04046
           2040           2040         39,877       -5,06468
           2041           2041         40,209       -5,08935
           2042           2042         40,542       -5,11417
           2043           2043         40,874       -5,13969
           2044           2044         41,207       -5,16502
           2045           2045         41,539       -5,19113
           2046           2046         41,871       -5,21847
           2047           2047         42,204       -5,24643
           2048           2048         42,536       -5,27366
           2049           2049         42,868       -5,30081
           2050           2050         43,201       -5,32794
           2051           2051         43,533       -5,35454
           2052           2052         43,865       -5,38127
           2053           2053         44,198       -5,40792
           2054           2054         44,530       -5,43422
           2055           2055         44,863       -5,46001
           2056           2056         45,195        -5,4854
           2057           2057         45,527       -5,50905
           2058           2058         45,860       -5,53117
           2059           2059         46,192       -5,55211
           2060           2060         46,525       -5,57163
           2061           2061         46,857       -5,58941
           2062           2062         47,190       -5,60609
           2063           2063         47,523       -5,62018
           2064           2064         47,855       -5,63277
           2065           2065         48,188       -5,64338
           2066           2066         48,521       -5,65279
           2067           2067         48,854       -5,65954
           2068           2068         49,187        -5,6648
           2069           2069         49,520       -5,66786
           2070           2070         49,852       -5,66938
           2071           2071         50,185       -5,66983
           2072           2072         50,519       -5,66913
           2073           2073         50,852       -5,66676
           2074           2074         51,185       -5,66327
           2075           2075         51,518       -5,65871
           2076           2076         51,851       -5,65392
           2077           2077         52,184       -5,64919
           2078           2078         52,517       -5,64453
           2079           2079         52,850       -5,63981
           2080           2080         53,184       -5,63534
           2081           2081         53,517       -5,63102
           2082           2082         53,850       -5,62683
           2083           2083         54,183        -5,6232
           2084           2084         54,516       -5,61945
           2085           2085         54,849       -5,61617
           2086           2086         55,182       -5,61313
           2087           2087         55,515       -5,61136
           2088           2088         55,848        -5,6092
           2089           2089         56,181       -5,60722
           2090           2090         56,514       -5,60542
           2091           2091         56,848       -5,60432
           2092           2092         57,181       -5,60297
           2093           2093         57,514       -5,60205
           2094           2094         57,847       -5,60151
           2095           2095         58,180       -5,60119
           2096           2096         58,513        -5,6007
           2097           2097         58,846        -5,6002
           2098           2098         59,179       -5,59972
           2099           2099         59,512       -5,59927
           2100           2100         59,845       -5,59872
           2101           2101         60,178       -5,59811
           2102           2102         60,511       -5,59749
           2103           2103         60,844       -5,59701
           2104           2104         61,177       -5,59669
           2105           2105         61,510       -5,59651
           2106           2106         61,843       -5,59641
           2107           2107         62,176       -5,59676
           2108           2108         62,509       -5,59701
           2109           2109         62,842       -5,59742
           2110           2110         63,175       -5,59793
           2111           2111         63,508        -5,5986
           2112           2112         63,841       -5,59914
           2113           2113         64,174       -5,59971
           2114           2114         64,507       -5,60025
           2115           2115         64,840       -5,60077
           2116           2116         65,173       -5,60132
           2117           2117         65,506       -5,60187
           2118           2118         65,839       -5,60241
           2119           2119         66,172       -5,60294
           2120           2120         66,505       -5,60341
           2121           2121         66,838       -5,60391
           2122           2122         67,171       -5,60443
           2123           2123         67,504       -5,60496
           2124           2124         67,837       -5,60547
           2125           2125         68,170       -5,60595
           2126           2126         68,503        -5,6064
           2127           2127         68,836       -5,60689
           2128           2128         69,169       -5,60735
           2129           2129         69,502       -5,60779
           2130           2130         69,835       -5,60817
           2131           2131         70,168       -5,60862
           2132           2132         70,501       -5,60913
           2133           2133         70,834       -5,60969
           2134           2134         71,167       -5,61029
           2135           2135         71,500       -5,61093
           2136           2136         71,833       -5,61147
           2137           2137         72,166        -5,6119
           2138           2138         72,499       -5,61236
           2139           2139         72,832       -5,61277
           2140           2140         73,165       -5,61321
           2141           2141         73,498       -5,61359
           2142           2142         73,831       -5,61387
           2143           2143         74,164         -5,614
           2144           2144         74,497        -5,6141
           2145           2145         74,830       -5,61415
           2146           2146         75,163       -5,61419
           2147           2147         75,496       -5,61393
           2148           2148         75,829       -5,61384
           2149           2149         76,162       -5,61382
           2150           2150         76,495       -5,61388
           2151           2151         76,828       -5,61407
           2152           2152         77,161       -5,61419
           2153           2153         77,494       -5,61432
           2154           2154         77,827        -5,6145
           2155           2155         78,160       -5,61477
           2156           2156         78,493       -5,61506
           2157           2157         78,826       -5,61529
           2158           2158         79,159       -5,61549
           2159           2159         79,492       -5,61561
           2160           2160         79,825       -5,61575
           2161           2161         80,158       -5,61583
           2162           2162         80,491       -5,61588
           2163           2163         80,824       -5,61577
           2164           2164         81,157        -5,6157
           2165           2165         81,490       -5,61555
           2166           2166         81,823       -5,61534
           2167           2167         82,156       -5,61504
           2168           2168         82,489       -5,61474
           2169           2169         82,822       -5,61449
           2170           2170         83,155       -5,61429
           2171           2171         83,488       -5,61385
           2172           2172         83,821       -5,61347
           2173           2173         84,154       -5,61309
           2174           2174         84,487       -5,61267
           2175           2175         84,820       -5,61208
           2176           2176         85,153       -5,61153
           2177           2177         85,486       -5,61101
           2178           2178         85,819       -5,61052
           2179           2179         86,152       -5,61002
           2180           2180         86,485       -5,60952
           2181           2181         86,818       -5,60903
           2182           2182         87,151       -5,60855
           2183           2183         87,484       -5,60813
           2184           2184         87,818       -5,60762
           2185           2185         88,151       -5,60711
           2186           2186         88,484       -5,60661
           2187           2187         88,817       -5,60581
           2188           2188         89,150       -5,60502
           2189           2189         89,483       -5,60424
           2190           2190         89,816       -5,60344
           2191           2191         90,149       -5,60253
           2192           2192         90,482       -5,60178
           2193           2193         90,815       -5,60111
           2194           2194         91,148       -5,60051
           2195           2195         91,481       -5,60005
           2196           2196         91,814       -5,59949
           2197           2197         92,147       -5,59892
           2198           2198         92,480       -5,59838
           2199           2199         92,813        -5,5978
           2200           2200         93,146        -5,5972
           2201           2201         93,479       -5,59661
           2202           2202         93,812       -5,59601
           2203           2203         94,145       -5,59541
           2204           2204         94,478       -5,59482
           2205           2205         94,811       -5,59422
           2206           2206         95,144       -5,59357
           2207           2207         95,477       -5,59289
           2208           2208         95,811       -5,59222
           2209           2209         96,144       -5,59151
           2210           2210         96,477       -5,59079
           2211           2211         96,810       -5,59004
           2212           2212         97,143       -5,58925
           2213           2213         97,476        -5,5884
           2214           2214         97,809       -5,58753
           2215           2215         98,142       -5,58679
           2216           2216         98,475        -5,5862
           2217           2217         98,808       -5,58567
           2218           2218         99,141       -5,58514
           2219           2219         99,474       -5,58463
           2220           2220         99,807       -5,58391
           2221           2221        100,140       -5,58316
           2222           2222        100,473       -5,58247
           2223           2223        100,806       -5,58099
           2224           2224        101,139       -5,57977
           2225           2225        101,472        -5,5785
           2226           2226        101,806       -5,57717
           2227           2227        102,139       -5,57574
           2228           2228        102,472       -5,57435
           2229           2229        102,805       -5,57286
           2230           2230        103,138       -5,57125
           2231           2231        103,471        -5,5694
           2232           2232        103,804       -5,56758
           2233           2233        104,137       -5,56573
           2234           2234        104,470       -5,56384
           2235           2235        104,803       -5,56162
           2236           2236        105,136       -5,55951
           2237           2237        105,470       -5,55735
           2238           2238        105,803       -5,55514
           2239           2239        106,136       -5,55287
           2240           2240        106,469        -5,5507
           2241           2241        106,802        -5,5486
           2242           2242        107,135       -5,54653
           2243           2243        107,468       -5,54455
           2244           2244        107,801       -5,54257
           2245           2245        108,134       -5,54056
           2246           2246        108,468        -5,5385
           2247           2247        108,801       -5,53661
           2248           2248        109,134       -5,53466
           2249           2249        109,467       -5,53268
           2250           2250        109,800       -5,53075
           2251           2251        110,133       -5,52863
           2252           2252        110,466       -5,52654
           2253           2253        110,799       -5,52446
           2254           2254        111,132       -5,52234
           2255           2255        111,465       -5,52022
           2256           2256        111,799       -5,51799
           2257           2257        112,132       -5,51579
           2258           2258        112,465       -5,51365
           2259           2259        112,798       -5,51156
           2260           2260        113,131       -5,50966
           2261           2261        113,464       -5,50781
           2262           2262        113,797       -5,50607
           2263           2263        114,130       -5,50438
           2264           2264        114,463       -5,50307
           2265           2265        114,797        -5,5016
           2266           2266        115,130       -5,50014
           2267           2267        115,463       -5,49871
           2268           2268        115,796       -5,49739
           2269           2269        116,129        -5,4961
           2270           2270        116,462       -5,49487
           2271           2271        116,795       -5,49367
           2272           2272        117,128       -5,49263
           2273           2273        117,461       -5,49161
           2274           2274        117,794       -5,49062
           2275           2275        118,127       -5,48965
           2276           2276        118,460       -5,48895
           2277           2277        118,794       -5,48819
           2278           2278        119,127       -5,48748
           2279           2279        119,460       -5,48684
           2280           2280        119,793       -5,48647
           2281           2281        120,126       -5,48597
           2282           2282        120,459       -5,48553
           2283           2283        120,792       -5,48513
           2284           2284        121,125       -5,48495
           2285           2285        121,458       -5,48472
           2286           2286        121,791       -5,48451
           2287           2287        122,124       -5,48433
           2288           2288        122,457       -5,48435
           2289           2289        122,790        -5,4843
           2290           2290        123,123       -5,48426
           2291           2291        123,456       -5,48426
           2292           2292        123,789       -5,48442
           2293           2293        124,122       -5,48463
           2294           2294        124,455       -5,48496
           2295           2295        124,788       -5,48534
           2296           2296        125,121       -5,48586
           2297           2297        125,454       -5,48656
           2298           2298        125,787         -5,488
           2299           2299        126,120       -5,49003
           2300           2300        126,453       -5,49231
           2301           2301        126,786       -5,49431
           2302           2302        127,119       -5,49639
           2303           2303        127,452       -5,49853
           2304           2304        127,785        -5,5007
           2305           2305        128,118       -5,50289
           2306           2306        128,451       -5,50512
           2307           2307        128,784       -5,50734
           2308           2308        129,117        -5,5096
           2309           2309        129,450        -5,5118
           2310           2310        129,783         -5,514
           2311           2311        130,116       -5,51621
           2312           2312        130,449       -5,51826
           2313           2313        130,782        -5,5204
           2314           2314        131,115       -5,52259
           2315           2315        131,448        -5,5248
           2316           2316        131,781       -5,52697
           2317           2317        132,114       -5,52921
           2318           2318        132,447        -5,5316
           2319           2319        132,780       -5,53406
           2320           2320        133,113       -5,53672
           2321           2321        133,446       -5,53939
           2322           2322        133,778       -5,54218
           2323           2323        134,111       -5,54505
           2324           2324        134,444       -5,54847
           2325           2325        134,777       -5,55185
           2326           2326        135,110       -5,55537
           2327           2327        135,443       -5,55903
           2328           2328        135,776       -5,56328
           2329           2329        136,109       -5,56742
           2330           2330        136,442       -5,57163
           2331           2331        136,775       -5,57591
           2332           2332        137,107        -5,5807
           2333           2333        137,440       -5,58542
           2334           2334        137,773       -5,59009
           2335           2335        138,106       -5,59487
           2336           2336        138,439       -5,60092
           2337           2337        138,772       -5,60743
           2338           2338        139,104       -5,61471
           2339           2339        139,437       -5,62237
           2340           2340        139,770       -5,63256
           2341           2341        140,102       -5,64381
           2342           2342        140,435       -5,65659
           2343           2343        140,767       -5,67055
           2344           2344        141,100       -5,68766
           2345           2345        141,432       -5,70595
           2346           2346        141,764       -5,72562
           2347           2347        142,096       -5,74592
           2348           2348        142,429       -5,76623
           2349           2349        142,761       -5,78661
           2350           2350        143,093       -5,80604
           2351           2351        143,425       -5,82426
           2352           2352        143,758       -5,83986
           2353           2353        144,090       -5,85369
           2354           2354        144,423        -5,8637
           2355           2355        144,755       -5,87189
           2356           2356        145,088       -5,87523
           2357           2357        145,421       -5,87679
           2358           2358        145,754       -5,87607
           2359           2359        146,087       -5,87394
           2360           2360        146,421       -5,86843
           2361           2361        146,754       -5,85935
           2362           2362        147,088       -5,84791
           2363           2363        147,421       -5,83477
           2364           2364        147,755       -5,81706
           2365           2365        148,089       -5,79762
           2366           2366        148,423       -5,77653
           2367           2367        148,757       -5,75543
           2368           2368        149,091       -5,73429
           2369           2369        149,425       -5,71463
           2370           2370        149,758       -5,69702
           2371           2371        150,092       -5,68091
           2372           2372        150,426       -5,66869
           2373           2373        150,759       -5,65778
           2374           2374        151,093       -5,64866
           2375           2375        151,426       -5,64073
           2376           2376        151,759       -5,63552
           2377           2377        152,093       -5,63115
           2378           2378        152,426       -5,62801
           2379           2379        152,759       -5,62539
           2380           2380        153,092       -5,62335
           2381           2381        153,425       -5,62143
           2382           2382        153,758       -5,61976
           2383           2383        154,091       -5,61833
           2384           2384        154,425        -5,6181
           2385           2385        154,758       -5,61755
           2386           2386        155,091       -5,61703
           2387           2387        155,424       -5,61655
           2388           2388        155,757       -5,61664
           2389           2389        156,090        -5,6165
           2390           2390        156,423       -5,61637
           2391           2391        156,756       -5,61629
           2392           2392        157,089       -5,61654
           2393           2393        157,422       -5,61685
           2394           2394        157,755       -5,61721
           2395           2395        158,088       -5,61753
           2396           2396        158,421       -5,61801
           2397           2397        158,754        -5,6182
           2398           2398        159,087       -5,61826
           2399           2399        159,420       -5,61827
           2400           2400        159,753       -5,61775
           2401           2401        160,087       -5,61741
           2402           2402        160,420       -5,61711
           2403           2403        160,753       -5,61685
           2404           2404        161,086       -5,61662
           2405           2405        161,419       -5,61654
           2406           2406        161,752       -5,61655
           2407           2407        162,085       -5,61664
           2408           2408        162,418       -5,61706
           2409           2409        162,751       -5,61735
           2410           2410        163,084       -5,61764
           2411           2411        163,417       -5,61796
           2412           2412        163,750       -5,61851
           2413           2413        164,083       -5,61908
           2414           2414        164,416       -5,61964
           2415           2415        164,749       -5,62021
           2416           2416        165,082       -5,62097
           2417           2417        165,415       -5,62151
           2418           2418        165,748       -5,62199
           2419           2419        166,081       -5,62246
           2420           2420        166,414       -5,62274
           2421           2421        166,747       -5,62312
           2422           2422        167,081       -5,62357
           2423           2423        167,414       -5,62404
           2424           2424        167,747       -5,62442
           2425           2425        168,080       -5,62475
           2426           2426        168,413       -5,62508
           2427           2427        168,746        -5,6254
           2428           2428        169,079       -5,62558
           2429           2429        169,412       -5,62586
           2430           2430        169,745       -5,62617
           2431           2431        170,078       -5,62647
           2432           2432        170,411       -5,62681
           2433           2433        170,744       -5,62718
           2434           2434        171,077       -5,62751
           2435           2435        171,410       -5,62784
           2436           2436        171,743        -5,6282
           2437           2437        172,076       -5,62855
           2438           2438        172,409       -5,62898
           2439           2439        172,742       -5,62945
           2440           2440        173,075       -5,62996
           2441           2441        173,408        -5,6305
           2442           2442        173,741       -5,63113
           2443           2443        174,075       -5,63177
           2444           2444        174,408       -5,63256
           2445           2445        174,741       -5,63325
           2446           2446        175,074       -5,63392
           2447           2447        175,407       -5,63459
           2448           2448        175,740       -5,63518
           2449           2449        176,073       -5,63578
           2450           2450        176,406       -5,63643
           2451           2451        176,739       -5,63712
           2452           2452        177,072       -5,63775
           2453           2453        177,405       -5,63842
           2454           2454        177,738       -5,63909
           2455           2455        178,071       -5,63974
           2456           2456        178,404       -5,64028
           2457           2457        178,737       -5,64063
           2458           2458        179,070        -5,6409
           2459           2459        179,403        -5,6412
           2460           2460        179,736       -5,64136
           2461           2461        180,069       -5,64137
           2462           2462        180,402       -5,64155
           2463           2463        180,735       -5,64291
           2464           2464        181,068       -5,64407
           2465           2465        181,401         -5,645
           2466           2466        181,734       -5,64595
           2467           2467        182,067        -5,6469
           2468           2468        182,400       -5,64767
           2469           2469        182,734       -5,64842
           2470           2470        183,067       -5,64911
           2471           2471        183,400       -5,64971
           2472           2472        183,733       -5,65004
           2473           2473        184,066        -5,6505
           2474           2474        184,399       -5,65102
           2475           2475        184,732       -5,65153
           2476           2476        185,065       -5,65205
           2477           2477        185,398       -5,65268
           2478           2478        185,731       -5,65337
           2479           2479        186,064       -5,65408
           2480           2480        186,397       -5,65505
           2481           2481        186,730       -5,65591
           2482           2482        187,063       -5,65676
           2483           2483        187,396       -5,65764
           2484           2484        187,729       -5,65862
           2485           2485        188,062       -5,65953
           2486           2486        188,395       -5,66036
           2487           2487        188,728       -5,66113
           2488           2488        189,061       -5,66192
           2489           2489        189,394       -5,66268
           2490           2490        189,727       -5,66346
           2491           2491        190,060       -5,66424
           2492           2492        190,393       -5,66495
           2493           2493        190,726       -5,66566
           2494           2494        191,059       -5,66639
           2495           2495        191,393       -5,66712
           2496           2496        191,726       -5,66789
           2497           2497        192,059       -5,66865
           2498           2498        192,392       -5,66942
           2499           2499        192,725       -5,67021
           2500           2500        193,058       -5,67094
           2501           2501        193,391       -5,67164
           2502           2502        193,724       -5,67237
           2503           2503        194,057       -5,67309
           2504           2504        194,390       -5,67379
           2505           2505        194,723       -5,67441
           2506           2506        195,056       -5,67502
           2507           2507        195,389       -5,67562
           2508           2508        195,722       -5,67618
           2509           2509        196,055       -5,67671
           2510           2510        196,388       -5,67723
           2511           2511        196,721       -5,67774
           2512           2512        197,054       -5,67826
           2513           2513        197,387       -5,67881
           2514           2514        197,720       -5,67946
           2515           2515        198,053       -5,68014
           2516           2516        198,386       -5,68079
           2517           2517        198,719       -5,68141
           2518           2518        199,053         -5,682
           2519           2519        199,386       -5,68256
           2520           2520        199,719       -5,68306


Results:
  Step	-59,15e-03 Wg^-1
  	-0,47 mW
  Onset	35,87 °C
  Inflect. Pt.	46,53 °C
  Midpoint	41,52 °C
  Angle Midpoint	44,42 °C

  Step	-0,12 Wg^-1
  	-0,97 mW
  Onset	42,81 °C
  Inflect. Pt.	34,12 °C
  Midpoint	33,30 °C
  Angle Midpoint	34,82 °C

  Step	-0,12 Wg^-1
  	-1,00 mW
  Onset	34,51 °C
  Inflect. Pt.	42,87 °C
  Midpoint	40,00 °C
  Angle Midpoint	40,90 °C

  Integral	-183,90 mJ
    normalized	-22,99 Jg^-1
  Onset	132,74 °C
  Peak	144,57 °C

  Integral	-7,87 mJ
    normalized	-0,98 Jg^-1
  Onset	138,79 °C
  Peak	145,42 °C

Sample:
  Grazia_DSC_GR018, 8,0000 mg


________________________________________________________________________________
Not signed                                                        STARe SW 16.40