Grazia_DSC_GR37                                                 19.01.2023 12:20
________________________________________________________________________________



Curve Name:
  Grazia_DSC_GR37, 19.01.2023 12:03:32
  Performed 19.01.2023 12:03:32
Curve Values:
          Index              t             Ts          Value
                           [s]           [°C]           [mW]
              0              0        -79,997       0,627492
              1              1        -79,663       0,699964
              2              2        -79,328       0,993761
              3              3        -78,992        1,41547
              4              4        -78,658        1,55888
              5              5        -78,326        1,37712
              6              6        -77,995       0,885395
              7              7        -77,665       0,240396
              8              8        -77,336      -0,517216
              9              9        -77,007       -1,24099
             10             10        -76,678       -1,89826
             11             11        -76,348       -2,50017
             12             12        -76,018       -2,96794
             13             13        -75,687       -3,37515
             14             14        -75,356       -3,72435
             15             15        -75,024       -4,03785
             16             16        -74,693       -4,27505
             17             17        -74,361       -4,48342
             18             18        -74,029        -4,6587
             19             19        -73,697       -4,81202
             20             20        -73,364       -4,93351
             21             21        -73,032         -5,047
             22             22        -72,699       -5,13901
             23             23        -72,367       -5,21863
             24             24        -72,034       -5,28307
             25             25        -71,701       -5,34095
             26             26        -71,369        -5,3932
             27             27        -71,036       -5,43799
             28             28        -70,703       -5,47107
             29             29        -70,370       -5,49816
             30             30        -70,037       -5,52488
             31             31        -69,704       -5,55093
             32             32        -69,371       -5,56467
             33             33        -69,038       -5,57715
             34             34        -68,705       -5,58697
             35             35        -68,372       -5,59671
             36             36        -68,039       -5,59462
             37             37        -67,706       -5,59278
             38             38        -67,373       -5,59427
             39             39        -67,040       -5,59247
             40             40        -66,707       -5,59005
             41             41        -66,373       -5,58536
             42             42        -66,040       -5,57691
             43             43        -65,707       -5,56994
             44             44        -65,374       -5,56283
             45             45        -65,041       -5,55207
             46             46        -64,708       -5,54165
             47             47        -64,375       -5,53398
             48             48        -64,041       -5,52474
             49             49        -63,708       -5,51208
             50             50        -63,375       -5,50227
             51             51        -63,042       -5,49262
             52             52        -62,709       -5,48301
             53             53        -62,376       -5,47203
             54             54        -62,042       -5,45809
             55             55        -61,709       -5,44333
             56             56        -61,376       -5,43241
             57             57        -61,043        -5,4186
             58             58        -60,710       -5,40788
             59             59        -60,377       -5,39731
             60             60        -60,043       -5,38535
             61             61        -59,710        -5,3739
             62             62        -59,377       -5,36157
             63             63        -59,044       -5,34642
             64             64        -58,711       -5,33692
             65             65        -58,377        -5,3238
             66             66        -58,044       -5,31103
             67             67        -57,711       -5,30043
             68             68        -57,378       -5,29116
             69             69        -57,045        -5,2818
             70             70        -56,712       -5,27253
             71             71        -56,378       -5,26312
             72             72        -56,045       -5,25383
             73             73        -55,712       -5,24462
             74             74        -55,379       -5,23455
             75             75        -55,046       -5,22422
             76             76        -54,713       -5,21437
             77             77        -54,379       -5,20488
             78             78        -54,046       -5,19652
             79             79        -53,713       -5,18858
             80             80        -53,380       -5,18062
             81             81        -53,047       -5,17272
             82             82        -52,714       -5,16512
             83             83        -52,380       -5,15778
             84             84        -52,047       -5,14915
             85             85        -51,714       -5,13734
             86             86        -51,381       -5,12648
             87             87        -51,048       -5,11974
             88             88        -50,715       -5,11367
             89             89        -50,381       -5,10632
             90             90        -50,048       -5,09894
             91             91        -49,715       -5,09344
             92             92        -49,382       -5,08659
             93             93        -49,049       -5,07602
             94             94        -48,716       -5,06909
             95             95        -48,382       -5,06303
             96             96        -48,049       -5,05663
             97             97        -47,716       -5,05016
             98             98        -47,383       -5,04362
             99             99        -47,050       -5,03715
            100            100        -46,717       -5,03085
            101            101        -46,383       -5,02431
            102            102        -46,050       -5,01774
            103            103        -45,717       -5,01168
            104            104        -45,384       -5,00727
            105            105        -45,051       -5,00199
            106            106        -44,718       -4,99646
            107            107        -44,385       -4,99081
            108            108        -44,051       -4,98514
            109            109        -43,718       -4,97947
            110            110        -43,385       -4,97385
            111            111        -43,052        -4,9682
            112            112        -42,719       -4,96308
            113            113        -42,386       -4,95771
            114            114        -42,053       -4,95233
            115            115        -41,719       -4,94705
            116            116        -41,386       -4,94176
            117            117        -41,053       -4,93643
            118            118        -40,720       -4,93159
            119            119        -40,387       -4,92788
            120            120        -40,054       -4,92489
            121            121        -39,721       -4,92081
            122            122        -39,388        -4,9158
            123            123        -39,054       -4,91055
            124            124        -38,721       -4,90832
            125            125        -38,388       -4,90479
            126            126        -38,055       -4,90108
            127            127        -37,722       -4,89743
            128            128        -37,389       -4,89412
            129            129        -37,056       -4,89087
            130            130        -36,723       -4,88772
            131            131        -36,389        -4,8847
            132            132        -36,056       -4,88215
            133            133        -35,723       -4,87941
            134            134        -35,390       -4,87654
            135            135        -35,057       -4,87374
            136            136        -34,724        -4,8714
            137            137        -34,391       -4,86857
            138            138        -34,058         -4,863
            139            139        -33,724       -4,85659
            140            140        -33,391       -4,85517
            141            141        -33,058       -4,85393
            142            142        -32,725       -4,85139
            143            143        -32,392       -4,84597
            144            144        -32,059       -4,84425
            145            145        -31,726       -4,84217
            146            146        -31,393        -4,8404
            147            147        -31,059       -4,83832
            148            148        -30,726       -4,83663
            149            149        -30,393       -4,83473
            150            150        -30,060       -4,83268
            151            151        -29,727       -4,83056
            152            152        -29,394        -4,8285
            153            153        -29,061        -4,8263
            154            154        -28,728       -4,82376
            155            155        -28,395       -4,82104
            156            156        -28,062       -4,82304
            157            157        -27,728       -4,82212
            158            158        -27,395       -4,82113
            159            159        -27,062       -4,82046
            160            160        -26,729       -4,82006
            161            161        -26,396       -4,81962
            162            162        -26,063       -4,81905
            163            163        -25,730       -4,81842
            164            164        -25,397       -4,81811
            165            165        -25,064       -4,81756
            166            166        -24,731        -4,8168
            167            167        -24,398       -4,81526
            168            168        -24,065       -4,81724
            169            169        -23,731       -4,81791
            170            170        -23,398       -4,81805
            171            171        -23,065        -4,8177
            172            172        -22,732        -4,8171
            173            173        -22,399       -4,81682
            174            174        -22,066       -4,81857
            175            175        -21,733       -4,81873
            176            176        -21,400       -4,81801
            177            177        -21,067       -4,81789
            178            178        -20,734       -4,81782
            179            179        -20,401       -4,81766
            180            180        -20,068       -4,81773
            181            181        -19,735       -4,81762
            182            182        -19,401       -4,81751
            183            183        -19,068       -4,81736
            184            184        -18,735       -4,81724
            185            185        -18,402       -4,81713
            186            186        -18,069       -4,81711
            187            187        -17,736        -4,8172
            188            188        -17,403       -4,81744
            189            189        -17,070       -4,81754
            190            190        -16,737       -4,81767
            191            191        -16,404       -4,81787
            192            192        -16,071       -4,81813
            193            193        -15,738       -4,81841
            194            194        -15,405       -4,81873
            195            195        -15,072       -4,81904
            196            196        -14,739        -4,8195
            197            197        -14,405       -4,81996
            198            198        -14,072       -4,82028
            199            199        -13,739       -4,82056
            200            200        -13,406       -4,82087
            201            201        -13,073       -4,82119
            202            202        -12,740       -4,82147
            203            203        -12,407       -4,82156
            204            204        -12,074       -4,82213
            205            205        -11,741       -4,82251
            206            206        -11,408       -4,82283
            207            207        -11,075       -4,82321
            208            208        -10,742       -4,82346
            209            209        -10,409       -4,82368
            210            210        -10,076       -4,82381
            211            211         -9,743       -4,82395
            212            212         -9,410       -4,82396
            213            213         -9,076       -4,82411
            214            214         -8,743        -4,8243
            215            215         -8,410       -4,82458
            216            216         -8,077       -4,82487
            217            217         -7,744       -4,82513
            218            218         -7,411       -4,82538
            219            219         -7,078       -4,82562
            220            220         -6,745       -4,82581
            221            221         -6,412       -4,82586
            222            222         -6,079       -4,82585
            223            223         -5,746       -4,82594
            224            224         -5,413       -4,82607
            225            225         -5,080       -4,82628
            226            226         -4,747       -4,82647
            227            227         -4,414       -4,82671
            228            228         -4,081       -4,82693
            229            229         -3,747       -4,82692
            230            230         -3,414       -4,82686
            231            231         -3,081       -4,82689
            232            232         -2,748       -4,82583
            233            233         -2,415       -4,82479
            234            234         -2,082        -4,8236
            235            235         -1,749       -4,82267
            236            236         -1,416       -4,82131
            237            237         -1,083        -4,8202
            238            238         -0,750       -4,81917
            239            239         -0,417       -4,81807
            240            240    -83,614e-03        -4,8168
            241            241          0,249       -4,81561
            242            242          0,583       -4,81439
            243            243          0,916       -4,81313
            244            244          1,249       -4,80967
            245            245          1,582       -4,80597
            246            246          1,915       -4,80246
            247            247          2,248       -4,79968
            248            248          2,581       -4,79903
            249            249          2,914        -4,8002
            250            250          3,247       -4,80039
            251            251          3,580       -4,79927
            252            252          3,914       -4,79699
            253            253          4,247       -4,79556
            254            254          4,580       -4,79424
            255            255          4,913       -4,79347
            256            256          5,246       -4,79326
            257            257          5,579       -4,79445
            258            258          5,912       -4,79563
            259            259          6,245       -4,79458
            260            260          6,578       -4,78798
            261            261          6,911       -4,78331
            262            262          7,244       -4,78173
            263            263          7,578       -4,78089
            264            264          7,911       -4,78191
            265            265          8,244       -4,78289
            266            266          8,577       -4,78401
            267            267          8,910       -4,78556
            268            268          9,243       -4,78744
            269            269          9,576        -4,7892
            270            270          9,909       -4,79109
            271            271         10,242       -4,79308
            272            272         10,575       -4,79557
            273            273         10,908       -4,79792
            274            274         11,241        -4,8003
            275            275         11,574       -4,80263
            276            276         11,907       -4,80538
            277            277         12,240       -4,80816
            278            278         12,573       -4,81066
            279            279         12,906       -4,81267
            280            280         13,239       -4,81642
            281            281         13,572       -4,82016
            282            282         13,905       -4,82368
            283            283         14,238       -4,82718
            284            284         14,571       -4,83096
            285            285         14,904       -4,83485
            286            286         15,237       -4,83883
            287            287         15,570       -4,84272
            288            288         15,903       -4,84712
            289            289         16,236       -4,85197
            290            290         16,569       -4,85723
            291            291         16,902        -4,8624
            292            292         17,235       -4,86814
            293            293         17,568       -4,87381
            294            294         17,901       -4,87942
            295            295         18,234       -4,88499
            296            296         18,566       -4,89114
            297            297         18,899       -4,89706
            298            298         19,232       -4,90284
            299            299         19,565       -4,90831
            300            300         19,898       -4,91594
            301            301         20,231       -4,92472
            302            302         20,564       -4,93352
            303            303         20,897       -4,94258
            304            304         21,230        -4,9522
            305            305         21,563       -4,96169
            306            306         21,895       -4,97136
            307            307         22,228       -4,98116
            308            308         22,561       -4,99158
            309            309         22,894       -5,00169
            310            310         23,227       -5,01216
            311            311         23,560       -5,02327
            312            312         23,892       -5,03581
            313            313         24,225        -5,0486
            314            314         24,558       -5,06199
            315            315         24,891       -5,07601
            316            316         25,223       -5,09053
            317            317         25,556       -5,10503
            318            318         25,889       -5,12031
            319            319         26,222       -5,13622
            320            320         26,554       -5,15282
            321            321         26,887       -5,16944
            322            322         27,220       -5,18631
            323            323         27,552       -5,20319
            324            324         27,885       -5,22163
            325            325         28,217       -5,24026
            326            326         28,550       -5,25889
            327            327         28,883       -5,27754
            328            328         29,215       -5,29648
            329            329         29,548       -5,31531
            330            330         29,881       -5,33465
            331            331         30,213       -5,35506
            332            332         30,546       -5,37592
            333            333         30,878       -5,39635
            334            334         31,211       -5,41671
            335            335         31,543       -5,43704
            336            336         31,876       -5,45729
            337            337         32,209       -5,47744
            338            338         32,541       -5,49717
            339            339         32,874       -5,51663
            340            340         33,206       -5,53561
            341            341         33,539       -5,55467
            342            342         33,872       -5,57358
            343            343         34,204       -5,59238
            344            344         34,537       -5,61063
            345            345         34,869       -5,62903
            346            346         35,202       -5,64732
            347            347         35,534       -5,66568
            348            348         35,867       -5,68368
            349            349         36,200        -5,7012
            350            350         36,532       -5,71712
            351            351         36,865       -5,73206
            352            352         37,198       -5,74706
            353            353         37,530       -5,76214
            354            354         37,863       -5,77662
            355            355         38,196       -5,79003
            356            356         38,528       -5,80232
            357            357         38,861       -5,81437
            358            358         39,194       -5,82633
            359            359         39,527       -5,83768
            360            360         39,859       -5,84775
            361            361         40,192       -5,85612
            362            362         40,525       -5,86268
            363            363         40,858       -5,86783
            364            364         41,191       -5,87184
            365            365         41,524       -5,87557
            366            366         41,857       -5,87774
            367            367         42,190        -5,8788
            368            368         42,523       -5,87672
            369            369         42,856       -5,87321
            370            370         43,189       -5,86771
            371            371         43,522       -5,86121
            372            372         43,855       -5,85232
            373            373         44,189       -5,84237
            374            374         44,522       -5,83212
            375            375         44,855       -5,82189
            376            376         45,188       -5,81185
            377            377         45,522        -5,8019
            378            378         45,855       -5,79201
            379            379         46,188       -5,78244
            380            380         46,521       -5,77336
            381            381         46,855       -5,76456
            382            382         47,188       -5,75708
            383            383         47,521       -5,75073
            384            384         47,854       -5,74565
            385            385         48,187       -5,74028
            386            386         48,520       -5,73483
            387            387         48,854       -5,72957
            388            388         49,187       -5,72488
            389            389         49,520       -5,72018
            390            390         49,853       -5,71556
            391            391         50,186       -5,71086
            392            392         50,519       -5,70733
            393            393         50,852       -5,70372
            394            394         51,185       -5,70044
            395            395         51,518       -5,69755
            396            396         51,852       -5,69485
            397            397         52,185       -5,69202
            398            398         52,518       -5,68931
            399            399         52,851       -5,68671
            400            400         53,184       -5,68414
            401            401         53,517       -5,68151
            402            402         53,850       -5,67884
            403            403         54,183       -5,67618
            404            404         54,516        -5,6738
            405            405         54,849       -5,67138
            406            406         55,182       -5,66862
            407            407         55,515         -5,666
            408            408         55,849       -5,66546
            409            409         56,182       -5,66433
            410            410         56,515       -5,66316
            411            411         56,848       -5,66134
            412            412         57,181       -5,65837
            413            413         57,514       -5,65552
            414            414         57,847       -5,65274
            415            415         58,180       -5,64994
            416            416         58,513       -5,64702
            417            417         58,846       -5,64378
            418            418         59,179       -5,64102
            419            419         59,512       -5,63901
            420            420         59,845       -5,63879
            421            421         60,178       -5,63705
            422            422         60,512       -5,63284
            423            423         60,845       -5,62881
            424            424         61,178       -5,62474
            425            425         61,511       -5,62086
            426            426         61,844       -5,61691
            427            427         62,177       -5,61294
            428            428         62,510       -5,60884
            429            429         62,843       -5,60465
            430            430         63,177       -5,60031
            431            431         63,510       -5,59589
            432            432         63,843       -5,59117
            433            433         64,176       -5,58651
            434            434         64,509       -5,58188
            435            435         64,842       -5,57732
            436            436         65,175       -5,57281
            437            437         65,509       -5,56795
            438            438         65,842       -5,56359
            439            439         66,175       -5,56024
            440            440         66,508       -5,55698
            441            441         66,841       -5,55309
            442            442         67,174        -5,5478
            443            443         67,507       -5,54219
            444            444         67,841       -5,53531
            445            445         68,174       -5,52855
            446            446         68,507       -5,52151
            447            447         68,840        -5,5145
            448            448         69,173       -5,50691
            449            449         69,507       -5,49945
            450            450         69,840       -5,49159
            451            451         70,173       -5,48351
            452            452         70,507       -5,47444
            453            453         70,840       -5,46532
            454            454         71,173       -5,45593
            455            455         71,506       -5,44646
            456            456         71,840       -5,43585
            457            457         72,173       -5,42408
            458            458         72,507       -5,41073
            459            459         72,840       -5,39632
            460            460         73,173       -5,38103
            461            461         73,507       -5,36448
            462            462         73,841       -5,34611
            463            463         74,174       -5,32629
            464            464         74,508       -5,30256
            465            465         74,842        -5,2772
            466            466         75,176       -5,24884
            467            467         75,510       -5,21702
            468            468         75,844        -5,1808
            469            469         76,178       -5,14016
            470            470         76,512       -5,09465
            471            471         76,847       -5,04538
            472            472         77,182       -4,98588
            473            473         77,517       -4,91951
            474            474         77,852       -4,84411
            475            475         78,188         -4,763
            476            476         78,524       -4,66307
            477            477         78,860       -4,55113
            478            478         79,197       -4,42395
            479            479         79,535       -4,28582
            480            480         79,873       -4,11633
            481            481         80,212        -3,9268
            482            482         80,552       -3,71153
            483            483         80,892       -3,47667
            484            484         81,234       -3,18964
            485            485         81,577       -2,87578
            486            486         81,921       -2,53427
            487            487         82,265       -2,17735
            488            488         82,610       -1,81985
            489            489         82,953       -1,49297
            490            490         83,295       -1,22342
            491            491         83,635       -1,00353
            492            492         83,971      -0,922688
            493            493         84,304      -0,914411
            494            494         84,636      -0,984042
            495            495         84,965        -1,1025
            496            496         85,292       -1,31044
            497            497         85,617       -1,54902
            498            498         85,942       -1,81132
            499            499         86,267       -2,08428
            500            500         86,591       -2,36202
            501            501         86,916       -2,63246
            502            502         87,241       -2,88916
            503            503         87,566       -3,13496
            504            504         87,892       -3,35192
            505            505         88,219       -3,55212
            506            506         88,546       -3,73343
            507            507         88,874       -3,90198
            508            508         89,202       -4,04245
            509            509         89,531       -4,17068
            510            510         89,861       -4,28505
            511            511         90,190       -4,39045
            512            512         90,521       -4,47764
            513            513         90,851       -4,55681
            514            514         91,182       -4,62724
            515            515         91,513       -4,69276
            516            516         91,844       -4,74625
            517            517         92,176       -4,79446
            518            518         92,507       -4,83748
            519            519         92,839       -4,87834
            520            520         93,171       -4,91443
            521            521         93,503       -4,94584
            522            522         93,835       -4,97277
            523            523         94,167       -4,99809
            524            524         94,500       -5,02013
            525            525         94,832       -5,04077
            526            526         95,164       -5,05944
            527            527         95,497       -5,07658
            528            528         95,829       -5,09262
            529            529         96,162       -5,10743
            530            530         96,495       -5,12066
            531            531         96,827       -5,13289
            532            532         97,160       -5,14414
            533            533         97,493       -5,15437
            534            534         97,825       -5,16411
            535            535         98,158       -5,17324
            536            536         98,491       -5,18216
            537            537         98,824       -5,19052
            538            538         99,156       -5,19766
            539            539         99,489       -5,20479
            540            540         99,822        -5,2117
            541            541        100,155       -5,21867
            542            542        100,488       -5,22515
            543            543        100,820       -5,23121
            544            544        101,153       -5,23688
            545            545        101,486       -5,24267
            546            546        101,819       -5,24836
            547            547        102,152       -5,25396
            548            548        102,485        -5,2592
            549            549        102,818       -5,26459
            550            550        103,150       -5,26996
            551            551        103,483       -5,27529
            552            552        103,816       -5,28048
            553            553        104,149       -5,28566
            554            554        104,482       -5,29083
            555            555        104,815       -5,29601
            556            556        105,148       -5,30116
            557            557        105,480       -5,30632
            558            558        105,813       -5,31142
            559            559        106,146       -5,31648
            560            560        106,479       -5,32173
            561            561        106,812       -5,32698
            562            562        107,145       -5,33232
            563            563        107,478        -5,3377
            564            564        107,811       -5,34316
            565            565        108,143       -5,34862
            566            566        108,476       -5,35417
            567            567        108,809       -5,35974
            568            568        109,142       -5,36539
            569            569        109,475       -5,37107
            570            570        109,808       -5,37679
            571            571        110,140       -5,38255
            572            572        110,473       -5,38856
            573            573        110,806       -5,39455
            574            574        111,139       -5,40049
            575            575        111,472       -5,40642
            576            576        111,805       -5,41251
            577            577        112,137       -5,41851
            578            578        112,470       -5,42448
            579            579        112,803       -5,43051
            580            580        113,136       -5,43661
            581            581        113,469       -5,44277
            582            582        113,802       -5,44898
            583            583        114,134       -5,45535
            584            584        114,467       -5,46212
            585            585        114,800       -5,46886
            586            586        115,133       -5,47575
            587            587        115,466       -5,48281
            588            588        115,798        -5,4903
            589            589        116,131       -5,49764
            590            590        116,464       -5,50506
            591            591        116,797       -5,51257
            592            592        117,129       -5,52042
            593            593        117,462       -5,52826
            594            594        117,795       -5,53627
            595            595        118,128       -5,54442
            596            596        118,460       -5,55309
            597            597        118,793       -5,56174
            598            598        119,126        -5,5705
            599            599        119,458       -5,57933
            600            600        119,791       -5,58895
            601            601        120,124        -5,5984
            602            602        120,457       -5,60785
            603            603        120,789        -5,6176
            604            604        121,122       -5,62827
            605            605        121,454       -5,63893
            606            606        121,787       -5,65043
            607            607        122,120       -5,66221
            608            608        122,452       -5,67435
            609            609        122,785        -5,6864
            610            610        123,117        -5,6986
            611            611        123,450       -5,71096
            612            612        123,783       -5,72357
            613            613        124,115       -5,73629
            614            614        124,448       -5,74968
            615            615        124,780       -5,76352
            616            616        125,113       -5,77886
            617            617        125,445       -5,79396
            618            618        125,777       -5,80932
            619            619        126,110       -5,82499
            620            620        126,442       -5,84127
            621            621        126,775       -5,85803
            622            622        127,107       -5,87532
            623            623        127,439       -5,89292
            624            624        127,772       -5,91291
            625            625        128,104       -5,93387
            626            626        128,436       -5,95594
            627            627        128,768        -5,9781
            628            628        129,100       -6,00335
            629            629        129,432        -6,0302
            630            630        129,764       -6,05933
            631            631        130,096       -6,08994
            632            632        130,428       -6,12403
            633            633        130,759       -6,16234
            634            634        131,091       -6,20511
            635            635        131,422       -6,24938
            636            636        131,753       -6,30263
            637            637        132,083       -6,36051
            638            638        132,414       -6,42371
            639            639        132,744       -6,48896
            640            640        133,075       -6,55838
            641            641        133,405       -6,63057
            642            642        133,735       -6,70357
            643            643        134,065       -6,77682
            644            644        134,395       -6,84297
            645            645        134,726       -6,90278
            646            646        135,057       -6,95596
            647            647        135,388       -7,00458
            648            648        135,719        -7,0416
            649            649        136,051       -7,07144
            650            650        136,383       -7,09385
            651            651        136,716       -7,11176
            652            652        137,048       -7,11887
            653            653        137,381       -7,12455
            654            654        137,714       -7,12883
            655            655        138,047       -7,13257
            656            656        138,379       -7,14379
            657            657        138,711       -7,16031
            658            658        139,043       -7,18424
            659            659        139,375       -7,21371
            660            660        139,706       -7,25793
            661            661        140,037       -7,31113
            662            662        140,368       -7,37507
            663            663        140,698       -7,44665
            664            664        141,027       -7,53632
            665            665        141,356       -7,63517
            666            666        141,684       -7,74408
            667            667        142,013       -7,85962
            668            668        142,340       -7,98984
            669            669        142,667       -8,13051
            670            670        142,994        -8,2843
            671            671        143,320        -8,4474
            672            672        143,646       -8,63622
            673            673        143,970       -8,84054
            674            674        144,294       -9,06128
            675            675        144,617       -9,29298
            676            676        144,939       -9,55496
            677            677        145,261       -9,82731
            678            678        145,582       -10,1065
            679            679        145,903        -10,387
            680            680        146,227       -10,6198
            681            681        146,552       -10,7864
            682            682        146,882       -10,8588
            683            683        147,215       -10,8652
            684            684        147,553       -10,7355
            685            685        147,893       -10,5531
            686            686        148,236       -10,3206
            687            687        148,580       -10,0587
            688            688        148,926       -9,74699
            689            689        149,272       -9,41951
            690            690        149,619        -9,0815
            691            691        149,966        -8,7407
            692            692        150,313       -8,40458
            693            693        150,660       -8,07916
            694            694        151,006       -7,77138
            695            695        151,351       -7,47822
            696            696        151,695       -7,22801
            697            697        152,037       -7,00137
            698            698        152,379       -6,80248
            699            699        152,719       -6,62187
            700            700        153,058       -6,48148
            701            701        153,397       -6,35825
            702            702        153,734       -6,25299
            703            703        154,071       -6,15933
            704            704        154,407       -6,08855
            705            705        154,743       -6,02547
            706            706        155,078       -5,97009
            707            707        155,413       -5,92092
            708            708        155,748        -5,8875
            709            709        156,082       -5,85881
            710            710        156,416       -5,83447
            711            711        156,750       -5,81163
            712            712        157,084       -5,79575
            713            713        157,418       -5,78129
            714            714        157,751       -5,76882
            715            715        158,085       -5,75782
            716            716        158,418       -5,74948
            717            717        158,752       -5,74196
            718            718        159,085        -5,7356
            719            719        159,418        -5,7301
            720            720        159,751       -5,72655
            721            721        160,085        -5,7239
            722            722        160,418       -5,72236
            723            723        160,751       -5,72117
            724            724        161,084       -5,72024
            725            725        161,417       -5,71911
            726            726        161,750       -5,71806
            727            727        162,083       -5,71705
            728            728        162,416       -5,71626
            729            729        162,749        -5,7154
            730            730        163,083       -5,71452
            731            731        163,416       -5,71368
            732            732        163,749       -5,71298
            733            733        164,082       -5,71225
            734            734        164,415       -5,71154
            735            735        164,748       -5,71082
            736            736        165,081       -5,71023
            737            737        165,414       -5,70963
            738            738        165,747       -5,70909
            739            739        166,080       -5,70859
            740            740        166,413       -5,70818
            741            741        166,746       -5,70776
            742            742        167,080       -5,70738
            743            743        167,413       -5,70701
            744            744        167,746       -5,70673
            745            745        168,079       -5,70646
            746            746        168,412       -5,70621
            747            747        168,745       -5,70599
            748            748        169,078       -5,70583
            749            749        169,411       -5,70562
            750            750        169,744       -5,70544
            751            751        170,077       -5,70528
            752            752        170,410       -5,70522
            753            753        170,743       -5,70522
            754            754        171,076       -5,70523
            755            755        171,410       -5,70523
            756            756        171,743       -5,70547
            757            757        172,076       -5,70567
            758            758        172,409       -5,70585
            759            759        172,742       -5,70599
            760            760        173,075       -5,70623
            761            761        173,408       -5,70645
            762            762        173,741       -5,70665
            763            763        174,074       -5,70682
            764            764        174,407       -5,70697
            765            765        174,740       -5,70711
            766            766        175,073       -5,70724
            767            767        175,406       -5,70739
            768            768        175,739        -5,7075
            769            769        176,072       -5,70765
            770            770        176,405       -5,70786
            771            771        176,738       -5,70813
            772            772        177,071       -5,70856
            773            773        177,405       -5,70897
            774            774        177,738       -5,70939
            775            775        178,071       -5,70982
            776            776        178,404       -5,71036
            777            777        178,737       -5,71083
            778            778        179,070       -5,71133
            779            779        179,403        -5,7118
            780            780        179,736       -5,71224
            781            781        180,069       -5,71265
            782            782        180,402       -5,71298
            783            783        180,735       -5,71325
            784            784        181,068        -5,7136
            785            785        181,401       -5,71393
            786            786        181,734       -5,71424
            787            787        182,067       -5,71451
            788            788        182,400       -5,71477
            789            789        182,733         -5,715
            790            790        183,066       -5,71521
            791            791        183,399       -5,71543
            792            792        183,732       -5,71557
            793            793        184,066       -5,71577
            794            794        184,399       -5,71596
            795            795        184,732        -5,7162
            796            796        185,065       -5,71651
            797            797        185,398       -5,71685
            798            798        185,731       -5,71723
            799            799        186,064       -5,71765
            800            800        186,397       -5,71826
            801            801        186,730       -5,71882
            802            802        187,063       -5,71937
            803            803        187,396        -5,7199
            804            804        187,729       -5,72041
            805            805        188,062       -5,72087
            806            806        188,395       -5,72131
            807            807        188,728       -5,72172
            808            808        189,061       -5,72191
            809            809        189,394       -5,72224
            810            810        189,727       -5,72266
            811            811        190,061       -5,72313
            812            812        190,394       -5,72358
            813            813        190,727       -5,72399
            814            814        191,060       -5,72441
            815            815        191,393       -5,72491
            816            816        191,726       -5,72541
            817            817        192,059       -5,72587
            818            818        192,392       -5,72632
            819            819        192,725       -5,72678
            820            820        193,058       -5,72718
            821            821        193,391       -5,72759
            822            822        193,724       -5,72804
            823            823        194,057       -5,72852
            824            824        194,390       -5,72896
            825            825        194,723       -5,72946
            826            826        195,056       -5,72999
            827            827        195,389       -5,73052
            828            828        195,722        -5,7312
            829            829        196,055       -5,73192
            830            830        196,389       -5,73266
            831            831        196,722       -5,73343
            832            832        197,055       -5,73433
            833            833        197,388       -5,73511
            834            834        197,721       -5,73594
            835            835        198,054       -5,73686
            836            836        198,387       -5,73736
            837            837        198,719       -5,74498
            838            838        199,050       -5,80135
            839            839        199,377       -5,92567
            840            840        199,703       -6,05771
            841            841        199,374        -5,9778
            842            842        199,059       -5,61082
            843            843        198,755       -5,02632
            844            844        198,469       -4,04293
            845            845        198,188        -2,9748
            846            846        197,908       -1,87918
            847            847        197,628      -0,795564
            848            848        197,342       0,172177
            849            849        197,051        1,05513
            850            850        196,756        1,83692
            851            851        196,457        2,55005
            852            852        196,151        3,11233
            853            853        195,841        3,60765
            854            854        195,528        4,03262
            855            855        195,213        4,41303
            856            856        194,894        4,70347
            857            857        194,572        4,95714
            858            858        194,249        5,17314
            859            859        193,925        5,36563
            860            860        193,598        5,51154
            861            861        193,271        5,63891
            862            862        192,942        5,74764
            863            863        192,614        5,84452
            864            864        192,283        5,91734
            865            865        191,953        5,98115
            866            866        191,622        6,03513
            867            867        191,291         6,0829
            868            868        190,959        6,11895
            869            869        190,627        6,15036
            870            870        190,294        6,17652
            871            871        189,962        6,20102
            872            872        189,629        6,21793
            873            873        189,296        6,23324
            874            874        188,963        6,24631
            875            875        188,630        6,25787
            876            876        188,297         6,2662
            877            877        187,963         6,2735
            878            878        187,630        6,27936
            879            879        187,297        6,28407
            880            880        186,963        6,28753
            881            881        186,630        6,29068
            882            882        186,296        6,29314
            883            883        185,963        6,29468
            884            884        185,629         6,2955
            885            885        185,296        6,29569
            886            886        184,962        6,29586
            887            887        184,628        6,29568
            888            888        184,295        6,29523
            889            889        183,961        6,29389
            890            890        183,627        6,29251
            891            891        183,294         6,2908
            892            892        182,960        6,28911
            893            893        182,626        6,28691
            894            894        182,292        6,28487
            895            895        181,959        6,28273
            896            896        181,625        6,28047
            897            897        181,291        6,27796
            898            898        180,957        6,27553
            899            899        180,624        6,27306
            900            900        180,290        6,27054
            901            901        179,956        6,26801
            902            902        179,623        6,26554
            903            903        179,289        6,26307
            904            904        178,955        6,26062
            905            905        178,621        6,25823
            906            906        178,288        6,25568
            907            907        177,954        6,25304
            908            908        177,620        6,25039
            909            909        177,286        6,24759
            910            910        176,953        6,24491
            911            911        176,619        6,24224
            912            912        176,285        6,23954
            913            913        175,951        6,23687
            914            914        175,618        6,23417
            915            915        175,284        6,23144
            916            916        174,950        6,22867
            917            917        174,616        6,22575
            918            918        174,283        6,22284
            919            919        173,949        6,21987
            920            920        173,615        6,21685
            921            921        173,281        6,21361
            922            922        172,947        6,21042
            923            923        172,614        6,20718
            924            924        172,280        6,20387
            925            925        171,946        6,20036
            926            926        171,612        6,19686
            927            927        171,279        6,19331
            928            928        170,945        6,18972
            929            929        170,611        6,18578
            930            930        170,277        6,18187
            931            931        169,943        6,17792
            932            932        169,610        6,17396
            933            933        169,276        6,16971
            934            934        168,942        6,16547
            935            935        168,608        6,16113
            936            936        168,274        6,15672
            937            937        167,940        6,15201
            938            938        167,607        6,14731
            939            939        167,273        6,14255
            940            940        166,939        6,13777
            941            941        166,605        6,13279
            942            942        166,271        6,12796
            943            943        165,937        6,12323
            944            944        165,604        6,11855
            945            945        165,270        6,11408
            946            946        164,936        6,10957
            947            947        164,602        6,10507
            948            948        164,268        6,10059
            949            949        163,935        6,09638
            950            950        163,601        6,09221
            951            951        163,267        6,08802
            952            952        162,933        6,08377
            953            953        162,599        6,07959
            954            954        162,265         6,0753
            955            955        161,932        6,07091
            956            956        161,598        6,06644
            957            957        161,264        6,06165
            958            958        160,930        6,05699
            959            959        160,596        6,05236
            960            960        160,263        6,04775
            961            961        159,929        6,04312
            962            962        159,595        6,03864
            963            963        159,261         6,0342
            964            964        158,927         6,0298
            965            965        158,593        6,02579
            966            966        158,260         6,0218
            967            967        157,926        6,01791
            968            968        157,592        6,01409
            969            969        157,258        6,01071
            970            970        156,924        6,00719
            971            971        156,591        6,00375
            972            972        156,257        6,00041
            973            973        155,923        5,99749
            974            974        155,589        5,99457
            975            975        155,256        5,99172
            976            976        154,922         5,9888
            977            977        154,588         5,9867
            978            978        154,255        5,98509
            979            979        153,921        5,98383
            980            980        153,587        5,98233
            981            981        153,253        5,98097
            982            982        152,920        5,97947
            983            983        152,586        5,97788
            984            984        152,252        5,97623
            985            985        151,919        5,97437
            986            986        151,585         5,9727
            987            987        151,251        5,97115
            988            988        150,918        5,96965
            989            989        150,584        5,96843
            990            990        150,250        5,96725
            991            991        149,917        5,96608
            992            992        149,583         5,9649
            993            993        149,249        5,96399
            994            994        148,916         5,9629
            995            995        148,582        5,96173
            996            996        148,248        5,96048
            997            997        147,915        5,95893
            998            998        147,581        5,95746
            999            999        147,247        5,95601
           1000           1000        146,913         5,9546
           1001           1001        146,580        5,95322
           1002           1002        146,246        5,95201
           1003           1003        145,912        5,95085
           1004           1004        145,579        5,94997
           1005           1005        145,245           5,95
           1006           1006        144,911        5,94997
           1007           1007        144,578        5,95084
           1008           1008        144,244        5,95235
           1009           1009        143,911        5,95474
           1010           1010        143,577        5,95699
           1011           1011        143,244        5,95949
           1012           1012        142,910         5,9626
           1013           1013        142,577        5,96711
           1014           1014        142,243        5,97188
           1015           1015        141,910        5,97686
           1016           1016        141,576        5,98229
           1017           1017        141,243        5,98804
           1018           1018        140,910        5,99366
           1019           1019        140,576        5,99932
           1020           1020        140,243          6,005
           1021           1021        139,909        6,01076
           1022           1022        139,576        6,01628
           1023           1023        139,243        6,02174
           1024           1024        138,909        6,02727
           1025           1025        138,576        6,03164
           1026           1026        138,242        6,03631
           1027           1027        137,909        6,04091
           1028           1028        137,575        6,04503
           1029           1029        137,242        6,04853
           1030           1030        136,908        6,05154
           1031           1031        136,575        6,05367
           1032           1032        136,241        6,05494
           1033           1033        135,908        6,05537
           1034           1034        135,574        6,05579
           1035           1035        135,240        6,05583
           1036           1036        134,907        6,05555
           1037           1037        134,573        6,05416
           1038           1038        134,239        6,05282
           1039           1039        133,906         6,0512
           1040           1040        133,572        6,04937
           1041           1041        133,238        6,04653
           1042           1042        132,904        6,04381
           1043           1043        132,571        6,04107
           1044           1044        132,237         6,0382
           1045           1045        131,903        6,03482
           1046           1046        131,569        6,03154
           1047           1047        131,236        6,02825
           1048           1048        130,902        6,02493
           1049           1049        130,568        6,02127
           1050           1050        130,234        6,01779
           1051           1051        129,900        6,01441
           1052           1052        129,567        6,01111
           1053           1053        129,233          6,008
           1054           1054        128,899        6,00498
           1055           1055        128,565        6,00212
           1056           1056        128,232        5,99936
           1057           1057        127,898        5,99718
           1058           1058        127,564         5,9949
           1059           1059        127,230        5,99276
           1060           1060        126,897        5,99113
           1061           1061        126,563        5,98999
           1062           1062        126,229         5,9887
           1063           1063        125,896        5,98757
           1064           1064        125,562        5,98699
           1065           1065        125,228        5,98678
           1066           1066        124,895        5,98636
           1067           1067        124,561        5,98592
           1068           1068        124,227        5,98554
           1069           1069        123,894        5,98522
           1070           1070        123,560        5,98465
           1071           1071        123,226        5,98398
           1072           1072        122,893        5,98322
           1073           1073        122,559        5,98194
           1074           1074        122,225        5,98079
           1075           1075        121,892        5,97963
           1076           1076        121,558        5,97845
           1077           1077        121,224        5,97691
           1078           1078        120,891        5,97551
           1079           1079        120,557        5,97417
           1080           1080        120,223        5,97286
           1081           1081        119,889        5,97149
           1082           1082        119,556        5,96998
           1083           1083        119,222        5,96839
           1084           1084        118,888        5,96687
           1085           1085        118,555         5,9646
           1086           1086        118,221        5,96271
           1087           1087        117,887        5,96074
           1088           1088        117,553        5,95841
           1089           1089        117,220        5,95706
           1090           1090        116,886        5,95526
           1091           1091        116,552        5,95349
           1092           1092        116,219         5,9521
           1093           1093        115,885         5,9493
           1094           1094        115,551        5,94694
           1095           1095        115,217         5,9446
           1096           1096        114,884        5,94224
           1097           1097        114,550        5,93971
           1098           1098        114,216         5,9372
           1099           1099        113,882        5,93455
           1100           1100        113,549        5,93173
           1101           1101        113,215        5,92913
           1102           1102        112,881        5,92636
           1103           1103        112,547        5,92224
           1104           1104        112,214        5,91766
           1105           1105        111,880         5,9126
           1106           1106        111,546        5,90796
           1107           1107        111,212        5,90333
           1108           1108        110,878        5,89868
           1109           1109        110,545        5,89399
           1110           1110        110,211        5,88943
           1111           1111        109,877          5,885
           1112           1112        109,543         5,8807
           1113           1113        109,209        5,87665
           1114           1114        108,876        5,87259
           1115           1115        108,542        5,86861
           1116           1116        108,208        5,86475
           1117           1117        107,874        5,86126
           1118           1118        107,540        5,85772
           1119           1119        107,207        5,85434
           1120           1120        106,873        5,85103
           1121           1121        106,539        5,84813
           1122           1122        106,205        5,84522
           1123           1123        105,872        5,84245
           1124           1124        105,538        5,83984
           1125           1125        105,204        5,83774
           1126           1126        104,870        5,83564
           1127           1127        104,537        5,83367
           1128           1128        104,203        5,83181
           1129           1129        103,869        5,83043
           1130           1130        103,536        5,82892
           1131           1131        103,202        5,82752
           1132           1132        102,868        5,82624
           1133           1133        102,535        5,82528
           1134           1134        102,201        5,82431
           1135           1135        101,867         5,8235
           1136           1136        101,534        5,82279
           1137           1137        101,200        5,82262
           1138           1138        100,866        5,82238
           1139           1139        100,533        5,82227
           1140           1140        100,199        5,82233
           1141           1141         99,865        5,82298
           1142           1142         99,532        5,82352
           1143           1143         99,198        5,82412
           1144           1144         98,864         5,8248
           1145           1145         98,531        5,82581
           1146           1146         98,197        5,82661
           1147           1147         97,864        5,82735
           1148           1148         97,530        5,82802
           1149           1149         97,196        5,82868
           1150           1150         96,863        5,82938
           1151           1151         96,529        5,83018
           1152           1152         96,195        5,83102
           1153           1153         95,862        5,83194
           1154           1154         95,528        5,83287
           1155           1155         95,195        5,83392
           1156           1156         94,861        5,83501
           1157           1157         94,527        5,83625
           1158           1158         94,194        5,83743
           1159           1159         93,860        5,83859
           1160           1160         93,526        5,83967
           1161           1161         93,193        5,84056
           1162           1162         92,859        5,84136
           1163           1163         92,526        5,84196
           1164           1164         92,192         5,8424
           1165           1165         91,858        5,84224
           1166           1166         91,525        5,84227
           1167           1167         91,191        5,84184
           1168           1168         90,857        5,84102
           1169           1169         90,524        5,83979
           1170           1170         90,190        5,83867
           1171           1171         89,856        5,83739
           1172           1172         89,522        5,83595
           1173           1173         89,189        5,83402
           1174           1174         88,855        5,83227
           1175           1175         88,521        5,83058
           1176           1176         88,188        5,82886
           1177           1177         87,854        5,82706
           1178           1178         87,520        5,82539
           1179           1179         87,186         5,8238
           1180           1180         86,853        5,82225
           1181           1181         86,519        5,82082
           1182           1182         86,185        5,81925
           1183           1183         85,852        5,81756
           1184           1184         85,518        5,81577
           1185           1185         85,184        5,81361
           1186           1186         84,850        5,81164
           1187           1187         84,517        5,80951
           1188           1188         84,183        5,80708
           1189           1189         83,849        5,80255
           1190           1190         83,515        5,79704
           1191           1191         83,182         5,7902
           1192           1192         82,848         5,7829
           1193           1193         82,514        5,77406
           1194           1194         82,180        5,76505
           1195           1195         81,846        5,75577
           1196           1196         81,512        5,74617
           1197           1197         81,178        5,73639
           1198           1198         80,844        5,72681
           1199           1199         80,510        5,71736
           1200           1200         80,176        5,70802
           1201           1201         79,842        5,69863
           1202           1202         79,508        5,68946
           1203           1203         79,174        5,68099
           1204           1204         78,840        5,67304
           1205           1205         78,507        5,66645
           1206           1206         78,173        5,66016
           1207           1207         77,839        5,65555
           1208           1208         77,505        5,65211
           1209           1209         77,171        5,65111
           1210           1210         76,838        5,65098
           1211           1211         76,504        5,65132
           1212           1212         76,171        5,65217
           1213           1213         75,837        5,65421
           1214           1214         75,503         5,6574
           1215           1215         75,170        5,66206
           1216           1216         74,836        5,66731
           1217           1217         74,503        5,67331
           1218           1218         74,169        5,67924
           1219           1219         73,836        5,68549
           1220           1220         73,502         5,6925
           1221           1221         73,169        5,70023
           1222           1222         72,836        5,70747
           1223           1223         72,502        5,71463
           1224           1224         72,169        5,72183
           1225           1225         71,835        5,72909
           1226           1226         71,502        5,73629
           1227           1227         71,168        5,74341
           1228           1228         70,835        5,75044
           1229           1229         70,501        5,75719
           1230           1230         70,168        5,76419
           1231           1231         69,835        5,77046
           1232           1232         69,501        5,77633
           1233           1233         69,167        5,78074
           1234           1234         68,834        5,78539
           1235           1235         68,500        5,78982
           1236           1236         68,167        5,79421
           1237           1237         67,833        5,79748
           1238           1238         67,500        5,79985
           1239           1239         67,166        5,80202
           1240           1240         66,832        5,80407
           1241           1241         66,499        5,80583
           1242           1242         66,165        5,80776
           1243           1243         65,832        5,80937
           1244           1244         65,498         5,8104
           1245           1245         65,164        5,81092
           1246           1246         64,831        5,81168
           1247           1247         64,497        5,81237
           1248           1248         64,163        5,81302
           1249           1249         63,830        5,81334
           1250           1250         63,496         5,8136
           1251           1251         63,162        5,81383
           1252           1252         62,829        5,81409
           1253           1253         62,495         5,8141
           1254           1254         62,161         5,8142
           1255           1255         61,828        5,81428
           1256           1256         61,494        5,81435
           1257           1257         61,160        5,81454
           1258           1258         60,827        5,81466
           1259           1259         60,493        5,81456
           1260           1260         60,159        5,81436
           1261           1261         59,826        5,81429
           1262           1262         59,492        5,81415
           1263           1263         59,158        5,81402
           1264           1264         58,825        5,81388
           1265           1265         58,491         5,8137
           1266           1266         58,157        5,81352
           1267           1267         57,824        5,81331
           1268           1268         57,490        5,81311
           1269           1269         57,156        5,81291
           1270           1270         56,823        5,81264
           1271           1271         56,489        5,81229
           1272           1272         56,155        5,81194
           1273           1273         55,822         5,8115
           1274           1274         55,488        5,81103
           1275           1275         55,154        5,81048
           1276           1276         54,821        5,80984
           1277           1277         54,487        5,80893
           1278           1278         54,153         5,8081
           1279           1279         53,820        5,80717
           1280           1280         53,486        5,80623
           1281           1281         53,152        5,80536
           1282           1282         52,819        5,80465
           1283           1283         52,485        5,80395
           1284           1284         52,151        5,80347
           1285           1285         51,818        5,80374
           1286           1286         51,484        5,80365
           1287           1287         51,150        5,80363
           1288           1288         50,817        5,80374
           1289           1289         50,483         5,8038
           1290           1290         50,149        5,80367
           1291           1291         49,816        5,80352
           1292           1292         49,482        5,80338
           1293           1293         49,148        5,80281
           1294           1294         48,815        5,80242
           1295           1295         48,481        5,80193
           1296           1296         48,147        5,80128
           1297           1297         47,814        5,79672
           1298           1298         47,480        5,78981
           1299           1299         47,146        5,78984
           1300           1300         46,812        5,79159
           1301           1301         46,479        5,79388
           1302           1302         46,145        5,79555
           1303           1303         45,812        5,79654
           1304           1304         45,478        5,79706
           1305           1305         45,144         5,7961
           1306           1306         44,811        5,79573
           1307           1307         44,477         5,7955
           1308           1308         44,143        5,79517
           1309           1309         43,810        5,79496
           1310           1310         43,476        5,79484
           1311           1311         43,142        5,79481
           1312           1312         42,809        5,79478
           1313           1313         42,475        5,79509
           1314           1314         42,141        5,79538
           1315           1315         41,808        5,79574
           1316           1316         41,474        5,79616
           1317           1317         41,140        5,79707
           1318           1318         40,807        5,79789
           1319           1319         40,473        5,79907
           1320           1320         40,140        5,80042
           1321           1321         39,806        5,80251
           1322           1322         39,472        5,80418
           1323           1323         39,139        5,80587
           1324           1324         38,805        5,80762
           1325           1325         38,471        5,80918
           1326           1326         38,138        5,81064
           1327           1327         37,804        5,81216
           1328           1328         37,471        5,81361
           1329           1329         37,137        5,81377
           1330           1330         36,803        5,81433
           1331           1331         36,470         5,8149
           1332           1332         36,136        5,81539
           1333           1333         35,802         5,8154
           1334           1334         35,469        5,81543
           1335           1335         35,135        5,81535
           1336           1336         34,801        5,81535
           1337           1337         34,468        5,81453
           1338           1338         34,134        5,81331
           1339           1339         33,800        5,81207
           1340           1340         33,467        5,81071
           1341           1341         33,133        5,80868
           1342           1342         32,799        5,80668
           1343           1343         32,466        5,80403
           1344           1344         32,132        5,80098
           1345           1345         31,798        5,79719
           1346           1346         31,464        5,79336
           1347           1347         31,131        5,78942
           1348           1348         30,797        5,78528
           1349           1349         30,463        5,78035
           1350           1350         30,129        5,77582
           1351           1351         29,796        5,77042
           1352           1352         29,462        5,76433
           1353           1353         29,128          5,757
           1354           1354         28,794        5,74991
           1355           1355         28,460        5,74289
           1356           1356         28,126        5,73546
           1357           1357         27,793        5,72757
           1358           1358         27,459        5,71925
           1359           1359         27,125        5,71033
           1360           1360         26,791        5,70093
           1361           1361         26,457        5,69106
           1362           1362         26,123        5,68076
           1363           1363         25,789        5,67012
           1364           1364         25,456        5,65938
           1365           1365         25,122        5,64835
           1366           1366         24,788        5,63698
           1367           1367         24,454        5,62434
           1368           1368         24,120        5,61075
           1369           1369         23,786        5,59606
           1370           1370         23,452        5,58163
           1371           1371         23,118        5,56723
           1372           1372         22,784         5,5524
           1373           1373         22,450         5,5372
           1374           1374         22,116        5,52167
           1375           1375         21,782        5,50559
           1376           1376         21,448        5,48906
           1377           1377         21,114        5,47257
           1378           1378         20,780         5,4562
           1379           1379         20,446        5,43991
           1380           1380         20,112        5,42362
           1381           1381         19,778         5,4073
           1382           1382         19,444        5,39109
           1383           1383         19,110        5,37496
           1384           1384         18,776         5,3588
           1385           1385         18,442        5,34275
           1386           1386         18,109        5,32676
           1387           1387         17,775        5,31083
           1388           1388         17,441        5,29486
           1389           1389         17,107        5,27901
           1390           1390         16,773        5,26366
           1391           1391         16,439         5,2496
           1392           1392         16,105        5,23602
           1393           1393         15,771        5,22201
           1394           1394         15,437         5,2081
           1395           1395         15,103        5,19426
           1396           1396         14,769        5,18044
           1397           1397         14,435        5,16656
           1398           1398         14,102        5,15276
           1399           1399         13,768        5,13905
           1400           1400         13,434        5,12528
           1401           1401         13,100        5,11147
           1402           1402         12,766        5,09828
           1403           1403         12,432        5,08657
           1404           1404         12,098        5,07535
           1405           1405         11,764        5,06496
           1406           1406         11,431        5,05431
           1407           1407         11,097        5,04149
           1408           1408         10,763        5,02828
           1409           1409         10,429        5,01516
           1410           1410         10,095        5,00242
           1411           1411          9,761        4,98966
           1412           1412          9,428        4,97716
           1413           1413          9,094         4,9645
           1414           1414          8,760        4,95204
           1415           1415          8,426        4,93977
           1416           1416          8,092        4,92654
           1417           1417          7,758        4,91379
           1418           1418          7,424        4,90104
           1419           1419          7,091        4,88887
           1420           1420          6,757        4,87668
           1421           1421          6,423        4,86468
           1422           1422          6,089         4,8524
           1423           1423          5,755        4,83961
           1424           1424          5,421        4,82667
           1425           1425          5,088        4,81109
           1426           1426          4,754        4,79355
           1427           1427          4,420        4,77931
           1428           1428          4,086        4,77196
           1429           1429          3,752        4,76607
           1430           1430          3,419        4,75957
           1431           1431          3,085        4,75279
           1432           1432          2,751        4,74602
           1433           1433          2,417        4,73841
           1434           1434          2,084        4,72983
           1435           1435          1,750        4,72129
           1436           1436          1,416        4,71295
           1437           1437          1,082        4,70606
           1438           1438          0,749         4,6988
           1439           1439          0,415        4,69154
           1440           1440     81,315e-03        4,68435
           1441           1441         -0,252        4,67946
           1442           1442         -0,586        4,67433
           1443           1443         -0,920        4,66917
           1444           1444         -1,253        4,66432
           1445           1445         -1,587        4,65763
           1446           1446         -1,921        4,65112
           1447           1447         -2,255        4,64571
           1448           1448         -2,588        4,64315
           1449           1449         -2,922        4,64228
           1450           1450         -3,255        4,64245
           1451           1451         -3,589        4,64309
           1452           1452         -3,923        4,64346
           1453           1453         -4,256        4,64113
           1454           1454         -4,590        4,63869
           1455           1455         -4,923        4,63799
           1456           1456         -5,257         4,6437
           1457           1457         -5,590        4,65488
           1458           1458         -5,924        4,66798
           1459           1459         -6,257        4,67485
           1460           1460         -6,591        4,67748
           1461           1461         -6,924        4,68273
           1462           1462         -7,258        4,69102
           1463           1463         -7,591        4,70252
           1464           1464         -7,924        4,72325
           1465           1465         -8,257        4,75154
           1466           1466         -8,590        4,84034
           1467           1467         -8,922        4,95158
           1468           1468         -9,254        5,01749
           1469           1469         -9,587         5,0381
           1470           1470         -9,922        5,00154
           1471           1471        -10,256         4,9665
           1472           1472        -10,590        4,93872
           1473           1473        -10,924        4,91724
           1474           1474        -11,257        4,90652
           1475           1475        -11,591        4,89303
           1476           1476        -11,925        4,88031
           1477           1477        -12,259        4,86866
           1478           1478        -12,593        4,85774
           1479           1479        -12,926        4,84704
           1480           1480        -13,260        4,83779
           1481           1481        -13,594        4,83008
           1482           1482        -13,928        4,82519
           1483           1483        -14,261        4,82097
           1484           1484        -14,595        4,81669
           1485           1485        -14,929        4,81223
           1486           1486        -15,262        4,80767
           1487           1487        -15,596        4,80319
           1488           1488        -15,930        4,79856
           1489           1489        -16,263        4,79361
           1490           1490        -16,597        4,79008
           1491           1491        -16,930        4,78733
           1492           1492        -17,264        4,78457
           1493           1493        -17,598         4,7817
           1494           1494        -17,931         4,7785
           1495           1495        -18,265        4,77495
           1496           1496        -18,599        4,77105
           1497           1497        -18,932        4,76869
           1498           1498        -19,266        4,76704
           1499           1499        -19,600        4,76552
           1500           1500        -19,933        4,76394
           1501           1501        -20,267        4,76229
           1502           1502        -20,600        4,76154
           1503           1503        -20,934        4,76052
           1504           1504        -21,268         4,7597
           1505           1505        -21,601        4,75889
           1506           1506        -21,935        4,75823
           1507           1507        -22,268        4,75767
           1508           1508        -22,602        4,75715
           1509           1509        -22,936        4,75667
           1510           1510        -23,269         4,7567
           1511           1511        -23,603        4,75666
           1512           1512        -23,936         4,7566
           1513           1513        -24,270        4,75649
           1514           1514        -24,603        4,75686
           1515           1515        -24,937        4,75699
           1516           1516        -25,271        4,75723
           1517           1517        -25,604         4,7575
           1518           1518        -25,938        4,75748
           1519           1519        -26,271        4,75764
           1520           1520        -26,605        4,75801
           1521           1521        -26,939        4,75811
           1522           1522        -27,272        4,75803
           1523           1523        -27,606        4,75825
           1524           1524        -27,939        4,75859
           1525           1525        -28,273        4,75892
           1526           1526        -28,606        4,75953
           1527           1527        -28,940        4,76008
           1528           1528        -29,274        4,76057
           1529           1529        -29,607        4,76101
           1530           1530        -29,941        4,76136
           1531           1531        -30,274        4,76177
           1532           1532        -30,608        4,76227
           1533           1533        -30,941        4,76284
           1534           1534        -31,275        4,76341
           1535           1535        -31,609        4,76399
           1536           1536        -31,942        4,76472
           1537           1537        -32,276        4,76555
           1538           1538        -32,609        4,76665
           1539           1539        -32,943        4,76774
           1540           1540        -33,276        4,76885
           1541           1541        -33,610        4,77002
           1542           1542        -33,944        4,77155
           1543           1543        -34,277        4,77311
           1544           1544        -34,611        4,77457
           1545           1545        -34,944        4,77593
           1546           1546        -35,278        4,77774
           1547           1547        -35,611        4,77946
           1548           1548        -35,945        4,78057
           1549           1549        -36,278         4,7806
           1550           1550        -36,612          4,784
           1551           1551        -36,946        4,78568
           1552           1552        -37,279        4,78535
           1553           1553        -37,613        4,78668
           1554           1554        -37,946        4,78843
           1555           1555        -38,280        4,78978
           1556           1556        -38,613        4,79104
           1557           1557        -38,947        4,79195
           1558           1558        -39,280        4,79511
           1559           1559        -39,614        4,79913
           1560           1560        -39,948        4,80295
           1561           1561        -40,281        4,80476
           1562           1562        -40,615        4,80667
           1563           1563        -40,948        4,80872
           1564           1564        -41,282         4,8108
           1565           1565        -41,615         4,8132
           1566           1566        -41,949        4,80676
           1567           1567        -42,283        4,80408
           1568           1568        -42,616        4,80933
           1569           1569        -42,950        4,81539
           1570           1570        -43,283         4,8195
           1571           1571        -43,617        4,82457
           1572           1572        -43,950        4,82994
           1573           1573        -44,284          4,834
           1574           1574        -44,617        4,83687
           1575           1575        -44,951        4,84008
           1576           1576        -45,284        4,84564
           1577           1577        -45,618        4,85175
           1578           1578        -45,951        4,85221
           1579           1579        -46,285        4,85354
           1580           1580        -46,618        4,85636
           1581           1581        -46,952        4,86087
           1582           1582        -47,285        4,86461
           1583           1583        -47,619        4,86801
           1584           1584        -47,953        4,87064
           1585           1585        -48,286        4,87362
           1586           1586        -48,620        4,87712
           1587           1587        -48,953        4,88061
           1588           1588        -49,287        4,88401
           1589           1589        -49,620        4,88757
           1590           1590        -49,954        4,89088
           1591           1591        -50,287        4,89375
           1592           1592        -50,621        4,89556
           1593           1593        -50,954        4,89721
           1594           1594        -51,288        4,90056
           1595           1595        -51,621         4,9039
           1596           1596        -51,955        4,90754
           1597           1597        -52,289        4,91123
           1598           1598        -52,622        4,91164
           1599           1599        -52,956         4,9129
           1600           1600        -53,289        4,91452
           1601           1601        -53,623        4,91644
           1602           1602        -53,956        4,91985
           1603           1603        -54,290        4,92412
           1604           1604        -54,623        4,92845
           1605           1605        -54,957        4,93207
           1606           1606        -55,290        4,93942
           1607           1607        -55,624        4,94308
           1608           1608        -55,957        4,94493
           1609           1609        -56,291         4,9459
           1610           1610        -56,625        4,95026
           1611           1611        -56,958        4,95634
           1612           1612        -57,292        4,96387
           1613           1613        -57,625        4,96843
           1614           1614        -57,959        4,97315
           1615           1615        -58,292        4,97681
           1616           1616        -58,626         4,9792
           1617           1617        -58,959        4,98444
           1618           1618        -59,293        4,98982
           1619           1619        -59,626        4,99501
           1620           1620        -59,960        4,99883
           1621           1621        -60,293        5,00064
           1622           1622        -60,627        5,00388
           1623           1623        -60,960        5,00941
           1624           1624        -61,294        5,01005
           1625           1625        -61,628        5,00922
           1626           1626        -61,961        5,01665
           1627           1627        -62,295        5,02346
           1628           1628        -62,628        5,02787
           1629           1629        -62,962        5,02845
           1630           1630        -63,295        5,02824
           1631           1631        -63,629        5,03149
           1632           1632        -63,962        5,03483
           1633           1633        -64,296        5,03752
           1634           1634        -64,629         5,0397
           1635           1635        -64,963        5,04224
           1636           1636        -65,296        5,04447
           1637           1637        -65,630        5,04572
           1638           1638        -65,964        5,04366
           1639           1639        -66,297        5,03855
           1640           1640        -66,631        5,03276
           1641           1641        -66,964        5,02686
           1642           1642        -67,298        5,02672
           1643           1643        -67,631        5,02191
           1644           1644        -67,965        5,01499
           1645           1645        -68,299        5,00706
           1646           1646        -68,632        4,98949
           1647           1647        -68,966        4,97375
           1648           1648        -69,300        4,96351
           1649           1649        -69,633        4,95774
           1650           1650        -69,967        4,94928
           1651           1651        -70,300         4,9389
           1652           1652        -70,634        4,92646
           1653           1653        -70,968        4,91755
           1654           1654        -71,301        4,90381
           1655           1655        -71,635        4,89117
           1656           1656        -71,969        4,87991
           1657           1657        -72,302        4,86627
           1658           1658        -72,636        4,85231
           1659           1659        -72,969        4,84116
           1660           1660        -73,303        4,82741
           1661           1661        -73,637        4,81389
           1662           1662        -73,970        4,80272
           1663           1663        -74,304        4,79081
           1664           1664        -74,638        4,77858
           1665           1665        -74,971        4,76533
           1666           1666        -75,305        4,75211
           1667           1667        -75,638        4,74033
           1668           1668        -75,972        4,72894
           1669           1669        -76,306        4,71697
           1670           1670        -76,639        4,70344
           1671           1671        -76,973        4,69059
           1672           1672        -77,306        4,67799
           1673           1673        -77,640        4,66567
           1674           1674        -77,974         4,6493
           1675           1675        -78,307        4,63391
           1676           1676        -78,641        4,61871
           1677           1677        -78,975         4,6036
           1678           1678        -79,308        4,59008
           1679           1679        -79,642        4,57829
           1680           1680        -79,975        4,58305
           1681           1681        -79,641        4,62675
           1682           1682        -79,307        4,78237
           1683           1683        -78,972        5,10275
           1684           1684        -78,636        5,44012
           1685           1685        -78,301        5,66593
           1686           1686        -77,970        5,31838
           1687           1687        -77,640        4,70131
           1688           1688        -77,311        3,86851
           1689           1689        -76,983        2,94264
           1690           1690        -76,655        1,98145
           1691           1691        -76,327        1,06548
           1692           1692        -75,999       0,227178
           1693           1693        -75,670      -0,552655
           1694           1694        -75,341       -1,19364
           1695           1695        -75,011       -1,76783
           1696           1696        -74,680       -2,27028
           1697           1697        -74,350       -2,72538
           1698           1698        -74,019       -3,08162
           1699           1699        -73,688        -3,4059
           1700           1700        -73,356       -3,68735
           1701           1701        -73,025       -3,94083
           1702           1702        -72,693       -4,13728
           1703           1703        -72,361       -4,31407
           1704           1704        -72,029       -4,46716
           1705           1705        -71,697       -4,60382
           1706           1706        -71,364       -4,70927
           1707           1707        -71,032       -4,80235
           1708           1708        -70,699        -4,8851
           1709           1709        -70,366       -4,95824
           1710           1710        -70,034       -5,01527
           1711           1711        -69,701        -5,0661
           1712           1712        -69,368       -5,10861
           1713           1713        -69,035       -5,14568
           1714           1714        -68,702       -5,17239
           1715           1715        -68,369       -5,19709
           1716           1716        -68,036       -5,21696
           1717           1717        -67,703       -5,23563
           1718           1718        -67,370       -5,24569
           1719           1719        -67,037       -5,24716
           1720           1720        -66,704       -5,23758
           1721           1721        -66,371       -5,22963
           1722           1722        -66,038       -5,23849
           1723           1723        -65,705       -5,23933
           1724           1724        -65,372       -5,23885
           1725           1725        -65,039       -5,23556
           1726           1726        -64,705       -5,23505
           1727           1727        -64,372       -5,23017
           1728           1728        -64,039       -5,22272
           1729           1729        -63,706       -5,21265
           1730           1730        -63,373       -5,20392
           1731           1731        -63,040       -5,19492
           1732           1732        -62,706       -5,18501
           1733           1733        -62,373       -5,17746
           1734           1734        -62,040       -5,16914
           1735           1735        -61,707       -5,15706
           1736           1736        -61,374       -5,14557
           1737           1737        -61,041       -5,13758
           1738           1738        -60,707       -5,12499
           1739           1739        -60,374       -5,11742
           1740           1740        -60,041       -5,11002
           1741           1741        -59,708       -5,10062
           1742           1742        -59,375       -5,09086
           1743           1743        -59,042       -5,08102
           1744           1744        -58,708       -5,07125
           1745           1745        -58,375       -5,06131
           1746           1746        -58,042       -5,05222
           1747           1747        -57,709        -5,0432
           1748           1748        -57,376       -5,03208
           1749           1749        -57,042       -5,02089
           1750           1750        -56,709       -5,01506
           1751           1751        -56,376       -5,00742
           1752           1752        -56,043       -4,99749
           1753           1753        -55,710       -4,98793
           1754           1754        -55,377       -4,97861
           1755           1755        -55,043       -4,96921
           1756           1756        -54,710       -4,95992
           1757           1757        -54,377       -4,95068
           1758           1758        -54,044       -4,94525
           1759           1759        -53,711       -4,93601
           1760           1760        -53,378       -4,92661
           1761           1761        -53,044       -4,91764
           1762           1762        -52,711       -4,91248
           1763           1763        -52,378       -4,90386
           1764           1764        -52,045       -4,89647
           1765           1765        -51,712        -4,8893
           1766           1766        -51,379       -4,88462
           1767           1767        -51,045       -4,87659
           1768           1768        -50,712       -4,86992
           1769           1769        -50,379       -4,86159
           1770           1770        -50,046       -4,85461
           1771           1771        -49,713       -4,84758
           1772           1772        -49,380       -4,84105
           1773           1773        -49,046       -4,83467
           1774           1774        -48,713       -4,82856
           1775           1775        -48,380        -4,8224
           1776           1776        -48,047       -4,81613
           1777           1777        -47,714       -4,80978
           1778           1778        -47,381       -4,80498
           1779           1779        -47,047       -4,79964
           1780           1780        -46,714       -4,79419
           1781           1781        -46,381       -4,78864
           1782           1782        -46,048       -4,78324
           1783           1783        -45,715       -4,77786
           1784           1784        -45,382       -4,77225
           1785           1785        -45,049       -4,76672
           1786           1786        -44,715       -4,76243
           1787           1787        -44,382       -4,75947
           1788           1788        -44,049       -4,75601
           1789           1789        -43,716        -4,7495
           1790           1790        -43,383       -4,74254
           1791           1791        -43,050       -4,73668
           1792           1792        -42,716       -4,73298
           1793           1793        -42,383       -4,73188
           1794           1794        -42,050       -4,72559
           1795           1795        -41,717        -4,7207
           1796           1796        -41,384       -4,71671
           1797           1797        -41,051        -4,7131
           1798           1798        -40,718       -4,70774
           1799           1799        -40,384       -4,70299
           1800           1800        -40,051       -4,69793
           1801           1801        -39,718       -4,69119
           1802           1802        -39,385       -4,69008
           1803           1803        -39,052       -4,68577
           1804           1804        -38,719       -4,68067
           1805           1805        -38,386       -4,67563
           1806           1806        -38,052       -4,67102
           1807           1807        -37,719       -4,66756
           1808           1808        -37,386       -4,66438
           1809           1809        -37,053       -4,66074
           1810           1810        -36,720       -4,65555
           1811           1811        -36,387       -4,64929
           1812           1812        -36,054        -4,6422
           1813           1813        -35,720       -4,63891
           1814           1814        -35,387       -4,63647
           1815           1815        -35,054       -4,63364
           1816           1816        -34,721       -4,63031
           1817           1817        -34,388       -4,62723
           1818           1818        -34,055        -4,6236
           1819           1819        -33,722       -4,62032
           1820           1820        -33,388       -4,61681
           1821           1821        -33,055       -4,61263
           1822           1822        -32,722       -4,61045
           1823           1823        -32,389       -4,60756
           1824           1824        -32,056       -4,60465
           1825           1825        -31,723        -4,6018
           1826           1826        -31,390       -4,59906
           1827           1827        -31,057       -4,59622
           1828           1828        -30,723       -4,59338
           1829           1829        -30,390       -4,59046
           1830           1830        -30,057       -4,58751
           1831           1831        -29,724       -4,58471
           1832           1832        -29,391       -4,58184
           1833           1833        -29,058       -4,57896
           1834           1834        -28,725       -4,57654
           1835           1835        -28,391       -4,57411
           1836           1836        -28,058       -4,57181
           1837           1837        -27,725       -4,57282
           1838           1838        -27,392       -4,56955
           1839           1839        -27,059       -4,56732
           1840           1840        -26,726       -4,56544
           1841           1841        -26,393        -4,5635
           1842           1842        -26,060       -4,56095
           1843           1843        -25,727       -4,55863
           1844           1844        -25,393       -4,55624
           1845           1845        -25,060       -4,55369
           1846           1846        -24,727       -4,55357
           1847           1847        -24,394       -4,55462
           1848           1848        -24,061        -4,5538
           1849           1849        -23,728       -4,55294
           1850           1850        -23,395       -4,55359
           1851           1851        -23,062       -4,55388
           1852           1852        -22,729       -4,55422
           1853           1853        -22,396       -4,55469
           1854           1854        -22,062       -4,55557
           1855           1855        -21,729       -4,55621
           1856           1856        -21,396       -4,55682
           1857           1857        -21,063       -4,55776
           1858           1858        -20,730       -4,55824
           1859           1859        -20,397        -4,5579
           1860           1860        -20,064        -4,5578
           1861           1861        -19,731       -4,55765
           1862           1862        -19,398       -4,55807
           1863           1863        -19,065       -4,55826
           1864           1864        -18,732       -4,55843
           1865           1865        -18,399       -4,55854
           1866           1866        -18,065       -4,55853
           1867           1867        -17,732       -4,55871
           1868           1868        -17,399       -4,55896
           1869           1869        -17,066       -4,55914
           1870           1870        -16,733       -4,55923
           1871           1871        -16,400       -4,55969
           1872           1872        -16,067       -4,55987
           1873           1873        -15,734       -4,55918
           1874           1874        -15,401       -4,55839
           1875           1875        -15,068       -4,55784
           1876           1876        -14,735       -4,55822
           1877           1877        -14,402       -4,55818
           1878           1878        -14,068       -4,55832
           1879           1879        -13,735       -4,55817
           1880           1880        -13,402       -4,55752
           1881           1881        -13,069       -4,55654
           1882           1882        -12,736       -4,55846
           1883           1883        -12,403       -4,55921
           1884           1884        -12,070       -4,55968
           1885           1885        -11,737       -4,56016
           1886           1886        -11,404       -4,56074
           1887           1887        -11,071       -4,56122
           1888           1888        -10,738       -4,56162
           1889           1889        -10,405       -4,56195
           1890           1890        -10,072       -4,56215
           1891           1891         -9,738        -4,5624
           1892           1892         -9,405        -4,5626
           1893           1893         -9,072       -4,56266
           1894           1894         -8,739       -4,56264
           1895           1895         -8,406       -4,56264
           1896           1896         -8,073       -4,56257
           1897           1897         -7,740       -4,56247
           1898           1898         -7,407       -4,56249
           1899           1899         -7,074       -4,56259
           1900           1900         -6,741       -4,56278
           1901           1901         -6,408       -4,56302
           1902           1902         -6,075       -4,56338
           1903           1903         -5,742       -4,56364
           1904           1904         -5,408       -4,56391
           1905           1905         -5,075       -4,56421
           1906           1906         -4,742       -4,56462
           1907           1907         -4,409       -4,56484
           1908           1908         -4,076       -4,56499
           1909           1909         -3,743       -4,56519
           1910           1910         -3,410       -4,56555
           1911           1911         -3,077       -4,56551
           1912           1912         -2,744       -4,56563
           1913           1913         -2,411       -4,56661
           1914           1914         -2,078       -4,56705
           1915           1915         -1,745       -4,56751
           1916           1916         -1,412       -4,56805
           1917           1917         -1,079       -4,56865
           1918           1918         -0,745       -4,56889
           1919           1919         -0,412       -4,56924
           1920           1920    -79,324e-03       -4,56965
           1921           1921          0,254       -4,57012
           1922           1922          0,587       -4,57072
           1923           1923          0,920       -4,57132
           1924           1924          1,253       -4,57196
           1925           1925          1,586       -4,57258
           1926           1926          1,919       -4,57335
           1927           1927          2,252       -4,57393
           1928           1928          2,585       -4,57444
           1929           1929          2,918       -4,57492
           1930           1930          3,251       -4,57529
           1931           1931          3,584       -4,57586
           1932           1932          3,917       -4,57658
           1933           1933          4,251       -4,57734
           1934           1934          4,584        -4,5783
           1935           1935          4,917       -4,57935
           1936           1936          5,250        -4,5806
           1937           1937          5,583       -4,58195
           1938           1938          5,916       -4,58377
           1939           1939          6,249       -4,58548
           1940           1940          6,582       -4,58764
           1941           1941          6,915       -4,59015
           1942           1942          7,248       -4,59304
           1943           1943          7,581       -4,59586
           1944           1944          7,914       -4,59877
           1945           1945          8,247        -4,6018
           1946           1946          8,580       -4,60513
           1947           1947          8,913       -4,60839
           1948           1948          9,246       -4,61166
           1949           1949          9,579       -4,61494
           1950           1950          9,912        -4,6185
           1951           1951         10,245       -4,62198
           1952           1952         10,578       -4,62547
           1953           1953         10,911       -4,62899
           1954           1954         11,244       -4,63289
           1955           1955         11,577       -4,63666
           1956           1956         11,910       -4,64038
           1957           1957         12,243        -4,6441
           1958           1958         12,576        -4,6483
           1959           1959         12,909       -4,65052
           1960           1960         13,242        -4,6479
           1961           1961         13,575       -4,64239
           1962           1962         13,908       -4,65014
           1963           1963         14,241       -4,65756
           1964           1964         14,574       -4,66448
           1965           1965         14,907       -4,67144
           1966           1966         15,240       -4,67848
           1967           1967         15,573       -4,68551
           1968           1968         15,906       -4,69292
           1969           1969         16,239       -4,70111
           1970           1970         16,572       -4,70992
           1971           1971         16,905       -4,71875
           1972           1972         17,238       -4,72797
           1973           1973         17,570       -4,73755
           1974           1974         17,903       -4,74754
           1975           1975         18,236       -4,75725
           1976           1976         18,569       -4,76713
           1977           1977         18,902       -4,77725
           1978           1978         19,235       -4,78972
           1979           1979         19,567        -4,8021
           1980           1980         19,900       -4,81456
           1981           1981         20,233        -4,8274
           1982           1982         20,566        -4,8407
           1983           1983         20,899       -4,85437
           1984           1984         21,231       -4,86866
           1985           1985         21,564       -4,88373
           1986           1986         21,897       -4,89934
           1987           1987         22,230       -4,91484
           1988           1988         22,562       -4,93108
           1989           1989         22,895       -4,94813
           1990           1990         23,228        -4,9666
           1991           1991         23,560       -4,98453
           1992           1992         23,893       -5,00246
           1993           1993         24,226       -5,02129
           1994           1994         24,558        -5,0413
           1995           1995         24,891        -5,0617
           1996           1996         25,224       -5,08265
           1997           1997         25,556       -5,10362
           1998           1998         25,889       -5,12573
           1999           1999         26,221       -5,14748
           2000           2000         26,554       -5,16928
           2001           2001         26,886       -5,19115
           2002           2002         27,219       -5,21333
           2003           2003         27,552       -5,23546
           2004           2004         27,884       -5,25762
           2005           2005         28,217       -5,27976
           2006           2006         28,549       -5,30187
           2007           2007         28,882        -5,3239
           2008           2008         29,214       -5,34586
           2009           2009         29,547       -5,36759
           2010           2010         29,879       -5,38884
           2011           2011         30,212       -5,41001
           2012           2012         30,544       -5,43093
           2013           2013         30,877       -5,45115
           2014           2014         31,210       -5,47026
           2015           2015         31,542       -5,48803
           2016           2016         31,875       -5,50415
           2017           2017         32,208       -5,51909
           2018           2018         32,540       -5,53081
           2019           2019         32,873       -5,54142
           2020           2020         33,206       -5,55164
           2021           2021         33,539       -5,56181
           2022           2022         33,872       -5,57149
           2023           2023         34,204       -5,58103
           2024           2024         34,537       -5,58852
           2025           2025         34,870       -5,59287
           2026           2026         35,203       -5,59335
           2027           2027         35,536       -5,59254
           2028           2028         35,869       -5,59045
           2029           2029         36,202       -5,58799
           2030           2030         36,535       -5,58497
           2031           2031         36,869       -5,58185
           2032           2032         37,202        -5,5781
           2033           2033         37,535        -5,5745
           2034           2034         37,868       -5,57046
           2035           2035         38,201       -5,56656
           2036           2036         38,534       -5,56263
           2037           2037         38,867        -5,5587
           2038           2038         39,200       -5,55464
           2039           2039         39,533       -5,55052
           2040           2040         39,867       -5,54635
           2041           2041         40,200       -5,54215
           2042           2042         40,533       -5,53802
           2043           2043         40,866       -5,53386
           2044           2044         41,199       -5,52966
           2045           2045         41,532       -5,52535
           2046           2046         41,865       -5,52352
           2047           2047         42,198       -5,52164
           2048           2048         42,531       -5,51956
           2049           2049         42,864       -5,51735
           2050           2050         43,198       -5,51542
           2051           2051         43,531       -5,51351
           2052           2052         43,864       -5,51154
           2053           2053         44,197       -5,50949
           2054           2054         44,530       -5,50766
           2055           2055         44,863       -5,50586
           2056           2056         45,196       -5,50413
           2057           2057         45,529       -5,50247
           2058           2058         45,862       -5,50094
           2059           2059         46,195       -5,49941
           2060           2060         46,528       -5,49783
           2061           2061         46,861       -5,49628
           2062           2062         47,194       -5,49497
           2063           2063         47,527        -5,4936
           2064           2064         47,861       -5,49224
           2065           2065         48,194        -5,4909
           2066           2066         48,527        -5,4897
           2067           2067         48,860       -5,48844
           2068           2068         49,193       -5,48717
           2069           2069         49,526       -5,48591
           2070           2070         49,859       -5,48453
           2071           2071         50,192       -5,48307
           2072           2072         50,525       -5,48162
           2073           2073         50,858       -5,48015
           2074           2074         51,191       -5,47858
           2075           2075         51,524       -5,47713
           2076           2076         51,857       -5,47562
           2077           2077         52,190       -5,47406
           2078           2078         52,523       -5,47343
           2079           2079         52,856       -5,47372
           2080           2080         53,189       -5,47378
           2081           2081         53,522       -5,47367
           2082           2082         53,855       -5,47372
           2083           2083         54,188       -5,47368
           2084           2084         54,522       -5,47358
           2085           2085         54,855       -5,47346
           2086           2086         55,188       -5,47322
           2087           2087         55,521       -5,47294
           2088           2088         55,854       -5,47264
           2089           2089         56,187        -5,4724
           2090           2090         56,520       -5,47204
           2091           2091         56,853       -5,47165
           2092           2092         57,186       -5,47126
           2093           2093         57,519       -5,47085
           2094           2094         57,852       -5,47049
           2095           2095         58,185       -5,47019
           2096           2096         58,518       -5,46987
           2097           2097         58,851       -5,46954
           2098           2098         59,184        -5,4693
           2099           2099         59,517       -5,46894
           2100           2100         59,850       -5,46858
           2101           2101         60,183       -5,46816
           2102           2102         60,516       -5,46763
           2103           2103         60,849       -5,46723
           2104           2104         61,182       -5,46686
           2105           2105         61,515       -5,46642
           2106           2106         61,848       -5,46592
           2107           2107         62,181       -5,46546
           2108           2108         62,514       -5,46498
           2109           2109         62,847       -5,46448
           2110           2110         63,180       -5,46158
           2111           2111         63,514       -5,45947
           2112           2112         63,847       -5,45761
           2113           2113         64,180       -5,45565
           2114           2114         64,513       -5,45414
           2115           2115         64,846       -5,45249
           2116           2116         65,179       -5,45087
           2117           2117         65,512       -5,44925
           2118           2118         65,845        -5,4477
           2119           2119         66,178       -5,44606
           2120           2120         66,511       -5,44434
           2121           2121         66,844       -5,44259
           2122           2122         67,177       -5,44075
           2123           2123         67,510       -5,43895
           2124           2124         67,843       -5,43717
           2125           2125         68,176       -5,43534
           2126           2126         68,510       -5,43334
           2127           2127         68,843       -5,43137
           2128           2128         69,176        -5,4294
           2129           2129         69,509       -5,42746
           2130           2130         69,842       -5,42547
           2131           2131         70,175       -5,42346
           2132           2132         70,508        -5,4214
           2133           2133         70,841        -5,4193
           2134           2134         71,174       -5,41713
           2135           2135         71,507       -5,41481
           2136           2136         71,840        -5,4124
           2137           2137         72,174       -5,41008
           2138           2138         72,507       -5,40702
           2139           2139         72,840       -5,40343
           2140           2140         73,173       -5,39928
           2141           2141         73,506       -5,39512
           2142           2142         73,839       -5,39004
           2143           2143         74,172       -5,38521
           2144           2144         74,506       -5,37979
           2145           2145         74,839       -5,37353
           2146           2146         75,172       -5,36501
           2147           2147         75,505       -5,35643
           2148           2148         75,839       -5,34724
           2149           2149         76,172       -5,33705
           2150           2150         76,505       -5,32456
           2151           2151         76,839       -5,31079
           2152           2152         77,172       -5,29503
           2153           2153         77,506       -5,27769
           2154           2154         77,840       -5,25634
           2155           2155         78,173       -5,23352
           2156           2156         78,507       -5,20806
           2157           2157         78,841       -5,17959
           2158           2158         79,175       -5,14377
           2159           2159         79,510       -5,10401
           2160           2160         79,844       -5,05893
           2161           2161         80,179       -5,00935
           2162           2162         80,513       -4,95048
           2163           2163         80,848       -4,88517
           2164           2164         81,184       -4,81113
           2165           2165         81,519       -4,73192
           2166           2166         81,855       -4,63524
           2167           2167         82,192       -4,52848
           2168           2168         82,529       -4,40963
           2169           2169         82,866       -4,28149
           2170           2170         83,204       -4,12713
           2171           2171         83,542       -3,95814
           2172           2172         83,881       -3,77029
           2173           2173         84,221       -3,56845
           2174           2174         84,561       -3,33156
           2175           2175         84,903       -3,07475
           2176           2176         85,245       -2,79428
           2177           2177         85,587        -2,4975
           2178           2178         85,931       -2,16051
           2179           2179         86,276       -1,80364
           2180           2180         86,621       -1,42866
           2181           2181         86,967       -1,04318
           2182           2182         87,312      -0,654378
           2183           2183         87,658      -0,280174
           2184           2184         88,002      0,0613907
           2185           2185         88,345       0,370888
           2186           2186         88,685       0,561456
           2187           2187         89,022       0,668105
           2188           2188         89,355       0,669025
           2189           2189         89,686       0,595451
           2190           2190         90,012       0,356097
           2191           2191         90,335      0,0504065
           2192           2192         90,656      -0,314966
           2193           2193         90,977      -0,711335
           2194           2194         91,296       -1,13884
           2195           2195         91,615       -1,56026
           2196           2196         91,936       -1,96187
           2197           2197         92,256       -2,34656
           2198           2198         92,578       -2,67888
           2199           2199         92,902        -2,9803
           2200           2200         93,226        -3,2478
           2201           2201         93,551       -3,49267
           2202           2202         93,878       -3,68566
           2203           2203         94,205       -3,85746
           2204           2204         94,533       -4,00656
           2205           2205         94,862       -4,14168
           2206           2206         95,192       -4,24511
           2207           2207         95,522       -4,33799
           2208           2208         95,852       -4,41906
           2209           2209         96,183        -4,4922
           2210           2210         96,514       -4,55135
           2211           2211         96,845       -4,60432
           2212           2212         97,176       -4,65128
           2213           2213         97,508       -4,69421
           2214           2214         97,840       -4,72951
           2215           2215         98,172       -4,76269
           2216           2216         98,504       -4,79165
           2217           2217         98,836       -4,81913
           2218           2218         99,168       -4,84322
           2219           2219         99,501       -4,86569
           2220           2220         99,833       -4,88634
           2221           2221        100,165       -4,90589
           2222           2222        100,498       -4,92307
           2223           2223        100,830       -4,93919
           2224           2224        101,163       -4,95487
           2225           2225        101,496        -4,9702
           2226           2226        101,828       -4,98335
           2227           2227        102,161       -4,99562
           2228           2228        102,493       -5,00746
           2229           2229        102,826       -5,01867
           2230           2230        103,159       -5,02892
           2231           2231        103,492       -5,03877
           2232           2232        103,824       -5,04799
           2233           2233        104,157       -5,05716
           2234           2234        104,490       -5,06557
           2235           2235        104,823       -5,07418
           2236           2236        105,155       -5,08261
           2237           2237        105,488       -5,09093
           2238           2238        105,821       -5,09885
           2239           2239        106,154       -5,10679
           2240           2240        106,486       -5,11464
           2241           2241        106,819       -5,12245
           2242           2242        107,152       -5,12981
           2243           2243        107,485       -5,13722
           2244           2244        107,818       -5,14458
           2245           2245        108,150       -5,15194
           2246           2246        108,483       -5,15906
           2247           2247        108,816       -5,16636
           2248           2248        109,149       -5,17372
           2249           2249        109,482       -5,18108
           2250           2250        109,814       -5,18854
           2251           2251        110,147       -5,19604
           2252           2252        110,480       -5,20357
           2253           2253        110,813        -5,2111
           2254           2254        111,145       -5,21879
           2255           2255        111,478       -5,22648
           2256           2256        111,811       -5,23422
           2257           2257        112,144       -5,24198
           2258           2258        112,477       -5,24992
           2259           2259        112,809       -5,25789
           2260           2260        113,142       -5,26594
           2261           2261        113,475       -5,27408
           2262           2262        113,808       -5,28246
           2263           2263        114,140       -5,29081
           2264           2264        114,473       -5,29927
           2265           2265        114,806       -5,30784
           2266           2266        115,139       -5,31664
           2267           2267        115,471       -5,32547
           2268           2268        115,804       -5,33446
           2269           2269        116,137       -5,34358
           2270           2270        116,469       -5,35319
           2271           2271        116,802       -5,36273
           2272           2272        117,135       -5,37245
           2273           2273        117,468       -5,38271
           2274           2274        117,800       -5,39344
           2275           2275        118,133       -5,40407
           2276           2276        118,465       -5,41482
           2277           2277        118,798       -5,42573
           2278           2278        119,131       -5,43725
           2279           2279        119,463        -5,4487
           2280           2280        119,796       -5,46034
           2281           2281        120,129       -5,47216
           2282           2282        120,461       -5,48427
           2283           2283        120,794       -5,49646
           2284           2284        121,126       -5,50935
           2285           2285        121,459       -5,52285
           2286           2286        121,791       -5,53789
           2287           2287        122,124       -5,55267
           2288           2288        122,456       -5,56778
           2289           2289        122,789       -5,58302
           2290           2290        123,121       -5,59917
           2291           2291        123,454       -5,61635
           2292           2292        123,786       -5,63395
           2293           2293        124,118       -5,65164
           2294           2294        124,451       -5,66998
           2295           2295        124,783       -5,68881
           2296           2296        125,115       -5,70845
           2297           2297        125,448       -5,72866
           2298           2298        125,780       -5,75005
           2299           2299        126,112        -5,7724
           2300           2300        126,444       -5,79576
           2301           2301        126,776       -5,81925
           2302           2302        127,108       -5,84517
           2303           2303        127,440       -5,87217
           2304           2304        127,772       -5,90075
           2305           2305        128,104        -5,9304
           2306           2306        128,436       -5,96348
           2307           2307        128,767       -5,99969
           2308           2308        129,099       -6,03799
           2309           2309        129,430       -6,07885
           2310           2310        129,762       -6,12724
           2311           2311        130,092       -6,18033
           2312           2312        130,423       -6,24073
           2313           2313        130,754        -6,3069
           2314           2314        131,083        -6,3897
           2315           2315        131,413       -6,48393
           2316           2316        131,741       -6,59162
           2317           2317        132,070       -6,70901
           2318           2318        132,398       -6,84203
           2319           2319        132,725       -6,97723
           2320           2320        133,053       -7,11014
           2321           2321        133,381       -7,23787
           2322           2322        133,710       -7,34131
           2323           2323        134,039        -7,4274
           2324           2324        134,370       -7,49206
           2325           2325        134,701         -7,541
           2326           2326        135,033       -7,55432
           2327           2327        135,366       -7,55151
           2328           2328        135,700         -7,531
           2329           2329        136,034       -7,49959
           2330           2330        136,369       -7,45038
           2331           2331        136,704       -7,39768
           2332           2332        137,039       -7,34503
           2333           2333        137,374       -7,29424
           2334           2334        137,709       -7,25527
           2335           2335        138,043       -7,22615
           2336           2336        138,376        -7,2122
           2337           2337        138,709       -7,21013
           2338           2338        139,041       -7,23793
           2339           2339        139,373         -7,282
           2340           2340        139,703        -7,3453
           2341           2341        140,033       -7,42218
           2342           2342        140,361       -7,53062
           2343           2343        140,689       -7,65322
           2344           2344        141,017       -7,79184
           2345           2345        141,344       -7,94062
           2346           2346        141,669       -8,11232
           2347           2347        141,995        -8,2931
           2348           2348        142,320       -8,48326
           2349           2349        142,645        -8,6792
           2350           2350        142,970       -8,88447
           2351           2351        143,294       -9,08934
           2352           2352        143,619       -9,29297
           2353           2353        143,943       -9,49553
           2354           2354        144,268       -9,68078
           2355           2355        144,594       -9,85152
           2356           2356        144,921         -9,999
           2357           2357        145,248       -10,1271
           2358           2358        145,579       -10,1901
           2359           2359        145,911        -10,206
           2360           2360        146,246       -10,1578
           2361           2361        146,582       -10,0622
           2362           2362        146,924       -9,84414
           2363           2363        147,269         -9,566
           2364           2364        147,616       -9,22687
           2365           2365        147,964       -8,85085
           2366           2366        148,315       -8,42938
           2367           2367        148,665       -8,00903
           2368           2368        149,015       -7,60651
           2369           2369        149,364       -7,22319
           2370           2370        149,710       -6,90981
           2371           2371        150,055       -6,63848
           2372           2372        150,397       -6,41458
           2373           2373        150,738       -6,22111
           2374           2374        151,077       -6,08729
           2375           2375        151,415       -5,97586
           2376           2376        151,751       -5,88614
           2377           2377        152,088       -5,80943
           2378           2378        152,423       -5,75679
           2379           2379        152,758       -5,71315
           2380           2380        153,092       -5,67813
           2381           2381        153,427       -5,64871
           2382           2382        153,761       -5,62541
           2383           2383        154,095        -5,6074
           2384           2384        154,428       -5,59251
           2385           2385        154,762       -5,57952
           2386           2386        155,095       -5,57019
           2387           2387        155,429       -5,56212
           2388           2388        155,762       -5,55574
           2389           2389        156,095       -5,55073
           2390           2390        156,429       -5,54708
           2391           2391        156,762       -5,54363
           2392           2392        157,095       -5,54028
           2393           2393        157,428       -5,53759
           2394           2394        157,761       -5,53606
           2395           2395        158,094       -5,53475
           2396           2396        158,428       -5,53364
           2397           2397        158,761       -5,53298
           2398           2398        159,094       -5,53256
           2399           2399        159,427       -5,53206
           2400           2400        159,760       -5,53169
           2401           2401        160,093       -5,53139
           2402           2402        160,426        -5,5315
           2403           2403        160,759       -5,53148
           2404           2404        161,092       -5,53149
           2405           2405        161,425       -5,53154
           2406           2406        161,758       -5,53185
           2407           2407        162,091       -5,53217
           2408           2408        162,424       -5,53253
           2409           2409        162,757       -5,53296
           2410           2410        163,090        -5,5335
           2411           2411        163,424       -5,53401
           2412           2412        163,757       -5,53455
           2413           2413        164,090       -5,53508
           2414           2414        164,423       -5,53569
           2415           2415        164,756       -5,53632
           2416           2416        165,089         -5,537
           2417           2417        165,422       -5,53775
           2418           2418        165,755       -5,53846
           2419           2419        166,088        -5,5391
           2420           2420        166,421        -5,5398
           2421           2421        166,754       -5,54057
           2422           2422        167,087       -5,54127
           2423           2423        167,420       -5,54199
           2424           2424        167,753       -5,54271
           2425           2425        168,086       -5,54346
           2426           2426        168,419       -5,54436
           2427           2427        168,752       -5,54521
           2428           2428        169,085       -5,54606
           2429           2429        169,418       -5,54692
           2430           2430        169,751       -5,54779
           2431           2431        170,084       -5,54861
           2432           2432        170,417       -5,54937
           2433           2433        170,750       -5,55008
           2434           2434        171,083       -5,55072
           2435           2435        171,416       -5,55146
           2436           2436        171,749       -5,55219
           2437           2437        172,082       -5,55292
           2438           2438        172,416       -5,55364
           2439           2439        172,749        -5,5543
           2440           2440        173,082       -5,55493
           2441           2441        173,415       -5,55552
           2442           2442        173,748       -5,55606
           2443           2443        174,081       -5,55666
           2444           2444        174,414       -5,55724
           2445           2445        174,747       -5,55779
           2446           2446        175,080       -5,55842
           2447           2447        175,413       -5,55901
           2448           2448        175,746       -5,55958
           2449           2449        176,079       -5,56012
           2450           2450        176,412       -5,56064
           2451           2451        176,745       -5,56117
           2452           2452        177,078       -5,56171
           2453           2453        177,411       -5,56224
           2454           2454        177,744       -5,56273
           2455           2455        178,077       -5,56324
           2456           2456        178,410       -5,56373
           2457           2457        178,743       -5,56425
           2458           2458        179,076       -5,56494
           2459           2459        179,410       -5,56567
           2460           2460        179,743       -5,56646
           2461           2461        180,076       -5,56724
           2462           2462        180,409       -5,56822
           2463           2463        180,742       -5,56912
           2464           2464        181,075       -5,56998
           2465           2465        181,408       -5,57081
           2466           2466        181,741       -5,57162
           2467           2467        182,074       -5,57241
           2468           2468        182,407        -5,5732
           2469           2469        182,740       -5,57397
           2470           2470        183,073       -5,57465
           2471           2471        183,406       -5,57535
           2472           2472        183,739       -5,57609
           2473           2473        184,072       -5,57683
           2474           2474        184,405       -5,57752
           2475           2475        184,738       -5,57827
           2476           2476        185,071       -5,57903
           2477           2477        185,404        -5,5798
           2478           2478        185,737       -5,58066
           2479           2479        186,070       -5,58149
           2480           2480        186,403       -5,58228
           2481           2481        186,736       -5,58307
           2482           2482        187,069       -5,58385
           2483           2483        187,402        -5,5846
           2484           2484        187,736       -5,58532
           2485           2485        188,069       -5,58606
           2486           2486        188,402       -5,58669
           2487           2487        188,735       -5,58733
           2488           2488        189,068         -5,588
           2489           2489        189,401       -5,58869
           2490           2490        189,734       -5,58939
           2491           2491        190,067       -5,59011
           2492           2492        190,400       -5,59083
           2493           2493        190,733       -5,59155
           2494           2494        191,066       -5,59239
           2495           2495        191,399       -5,59319
           2496           2496        191,732       -5,59398
           2497           2497        192,065       -5,59478
           2498           2498        192,398       -5,59559
           2499           2499        192,731       -5,59636
           2500           2500        193,064        -5,5971
           2501           2501        193,397       -5,59782
           2502           2502        193,730       -5,59846
           2503           2503        194,063       -5,59912
           2504           2504        194,396       -5,59979
           2505           2505        194,729       -5,60046
           2506           2506        195,063       -5,60111
           2507           2507        195,396       -5,60172
           2508           2508        195,729       -5,60239
           2509           2509        196,062       -5,60312
           2510           2510        196,395       -5,60387
           2511           2511        196,728       -5,60461
           2512           2512        197,061       -5,60533
           2513           2513        197,394       -5,60614
           2514           2514        197,727       -5,60703
           2515           2515        198,060       -5,60803
           2516           2516        198,393       -5,60907
           2517           2517        198,726       -5,61002
           2518           2518        199,059       -5,61087
           2519           2519        199,392       -5,61177
           2520           2520        199,725       -5,61289


Results:
  Step	-0,15 Wg^-1
  	-0,91 mW
  Onset	23,14 °C
  Inflect. Pt.	31,21 °C
  Midpoint	28,61 °C
  Angle Midpoint	31,91 °C

  Step	-0,13 Wg^-1
  	-0,85 mW
  Onset	19,78 °C
  Inflect. Pt.	27,88 °C
  Midpoint	24,84 °C
  Angle Midpoint	26,91 °C

  Integral	104,03 mJ
    normalized	16,51 Jg^-1
  Onset	78,99 °C
  Peak	84,30 °C

  Integral	-163,86 mJ
    normalized	-26,01 Jg^-1
  Onset	140,05 °C
  Peak	147,21 °C

  Integral	131,05 mJ
    normalized	20,80 Jg^-1
  Onset	83,12 °C
  Peak	89,02 °C

  Integral	-167,64 mJ
    normalized	-26,61 Jg^-1
  Onset	137,34 °C
  Peak	145,91 °C

  Extrapol. Peak	131,85 °C
    normalized	-1,11 Wg^-1
  Peak	135,28 °C

  Extrapol. Peak	134,61 °C
    normalized	-1,20 Wg^-1
  Peak	135,03 °C

  Step	-0,18 Wg^-1
  	-1,16 mW
  Onset	28,18 °C
  Inflect. Pt.	20,45 °C
  Midpoint	15,94 °C
  Angle Midpoint	16,58 °C

Sample:
  Grazia_DSC_GR37, 6,3000 mg


________________________________________________________________________________
Not signed                                                        STARe SW 16.40